         ID: 

    Comment: 

Scan Type: Normal
Start Angle: 15 deg.
Stop Angle: 90 deg.
Num Points: 3751
Step Size: 0.02 deg.
Datafile Res: 1600 
Scan Rate: 1.000000
Scan Mode: Continuous
Wavelength: 1.540562

Diffractometer Optics:
		Detector:
			 Type: Fixed Slits
			 X2 Configuration: No
		Tube: 
			 Type: Fixed Slits
			 X2 Configuration: No


Axis[0]
	 Selected   : no 
	 Iterative  : no 
	 Start Angle: 0.000000 
	 Stop Angle : 0.000000 
	 Step Size  : 0.000000 
	 Oscillating: no 

Axis[1]
	 Selected   : no 
	 Iterative  : no 
	 Start Angle: 0.000000 
	 Stop Angle : 0.000000 
	 Step Size  : 0.000000 
	 Oscillating: no 

Axis[2]
	 Selected   : no 
	 Iterative  : no 
	 Start Angle: 0.000000 
	 Stop Angle : 0.000000 
	 Step Size  : 0.000000 
	 Oscillating: no 

Axis[3]
	 Selected   : no 
	 Iterative  : no 
	 Start Angle: 0.000000 
	 Stop Angle : 0.000000 
	 Step Size  : 0.000000 
	 Oscillating: no 

Axis[4]
	 Selected   : no 
	 Iterative  : no 
	 Start Angle: 0.000000 
	 Stop Angle : 0.000000 
	 Step Size  : 0.000000 
	 Oscillating: no 

Axis[5]
	 Selected   : no 
	 Iterative  : no 
	 Start Angle: 0.000000 
	 Stop Angle : 0.000000 
	 Step Size  : 0.000000 
	 Oscillating: no 

Axis[6]
	 Selected   : no 
	 Iterative  : no 
	 Start Angle: 0.000000 
	 Stop Angle : 0.000000 
	 Step Size  : 0.000000 
	 Oscillating: no 

Axis[7]
	 Selected   : no 
	 Iterative  : no 
	 Start Angle: 0.000000 
	 Stop Angle : 0.000000 
	 Step Size  : 0.000000 
	 Oscillating: no 

Axis[8]
	 Selected   : no 
	 Iterative  : no 
	 Start Angle: 0.000000 
	 Stop Angle : 0.000000 
	 Step Size  : 0.000000 
	 Oscillating: no 

Axis[9]
	 Selected   : no 
	 Iterative  : no 
	 Start Angle: 0.000000 
	 Stop Angle : 0.000000 
	 Step Size  : 0.000000 
	 Oscillating: no 




	   Deg.    Counts 	   Time 	    ESD   

Range 0
  15.000	       123	    1200	    11.091
  15.020	       101	    1200	    10.050
  15.040	       127	    1200	    11.269
  15.060	        95	    1200	     9.747
  15.080	       124	    1200	    11.136
  15.100	       122	    1200	    11.045
  15.120	       121	    1200	    11.000
  15.140	       120	    1200	    10.954
  15.160	       118	    1200	    10.863
  15.180	       132	    1200	    11.489
  15.200	       108	    1200	    10.392
  15.220	       130	    1200	    11.402
  15.240	       124	    1200	    11.136
  15.260	       128	    1200	    11.314
  15.280	        95	    1200	     9.747
  15.300	       121	    1200	    11.000
  15.320	       109	    1200	    10.440
  15.340	       120	    1200	    10.954
  15.360	       125	    1200	    11.180
  15.380	       111	    1200	    10.536
  15.400	       109	    1200	    10.440
  15.420	       110	    1200	    10.488
  15.440	       127	    1200	    11.269
  15.460	       144	    1200	    12.000
  15.480	       121	    1200	    11.000
  15.500	       121	    1200	    11.000
  15.520	       127	    1200	    11.269
  15.540	       113	    1200	    10.630
  15.560	       114	    1200	    10.677
  15.580	       107	    1200	    10.344
  15.600	       158	    1200	    12.570
  15.620	       107	    1200	    10.344
  15.640	       116	    1200	    10.770
  15.660	       115	    1200	    10.724
  15.680	       107	    1200	    10.344
  15.700	       117	    1200	    10.817
  15.720	       108	    1200	    10.392
  15.740	       100	    1200	    10.000
  15.760	       115	    1200	    10.724
  15.780	       105	    1200	    10.247
  15.800	       124	    1200	    11.136
  15.820	       122	    1200	    11.045
  15.840	       121	    1200	    11.000
  15.860	       134	    1200	    11.576
  15.880	       138	    1200	    11.747
  15.900	       123	    1200	    11.091
  15.920	       126	    1200	    11.225
  15.940	       124	    1200	    11.136
  15.960	       131	    1200	    11.446
  15.980	       103	    1200	    10.149
  16.000	       120	    1200	    10.954
  16.020	        99	    1200	     9.950
  16.040	       128	    1200	    11.314
  16.060	       133	    1200	    11.533
  16.080	       121	    1200	    11.000
  16.100	       115	    1200	    10.724
  16.120	       105	    1200	    10.247
  16.140	       106	    1200	    10.296
  16.160	       133	    1200	    11.533
  16.180	       113	    1200	    10.630
  16.200	       113	    1200	    10.630
  16.220	       104	    1200	    10.198
  16.240	       114	    1200	    10.677
  16.260	       136	    1200	    11.662
  16.280	       104	    1200	    10.198
  16.300	       118	    1200	    10.863
  16.320	       108	    1200	    10.392
  16.340	       133	    1200	    11.533
  16.360	       116	    1200	    10.770
  16.380	       108	    1200	    10.392
  16.400	       118	    1200	    10.863
  16.420	       112	    1200	    10.583
  16.440	       116	    1200	    10.770
  16.460	        85	    1200	     9.220
  16.480	       127	    1200	    11.269
  16.500	       117	    1200	    10.817
  16.520	       129	    1200	    11.358
  16.540	       131	    1200	    11.446
  16.560	       120	    1200	    10.954
  16.580	       112	    1200	    10.583
  16.600	       116	    1200	    10.770
  16.620	       102	    1200	    10.100
  16.640	        94	    1200	     9.695
  16.660	       116	    1200	    10.770
  16.680	       120	    1200	    10.954
  16.700	       115	    1200	    10.724
  16.720	       134	    1200	    11.576
  16.740	       106	    1200	    10.296
  16.760	       106	    1200	    10.296
  16.780	       119	    1200	    10.909
  16.800	       100	    1200	    10.000
  16.820	       109	    1200	    10.440
  16.840	       128	    1200	    11.314
  16.860	       104	    1200	    10.198
  16.880	       118	    1200	    10.863
  16.900	       111	    1200	    10.536
  16.920	       116	    1200	    10.770
  16.940	        99	    1200	     9.950
  16.960	       120	    1200	    10.954
  16.980	       109	    1200	    10.440
  17.000	       111	    1200	    10.536
  17.020	        99	    1200	     9.950
  17.040	       119	    1200	    10.909
  17.060	       106	    1200	    10.296
  17.080	       114	    1200	    10.677
  17.100	       111	    1200	    10.536
  17.120	       114	    1200	    10.677
  17.140	       121	    1200	    11.000
  17.160	       129	    1200	    11.358
  17.180	       114	    1200	    10.677
  17.200	       124	    1200	    11.136
  17.220	       102	    1200	    10.100
  17.240	       113	    1200	    10.630
  17.260	       115	    1200	    10.724
  17.280	       125	    1200	    11.180
  17.300	       115	    1200	    10.724
  17.320	        92	    1200	     9.592
  17.340	       102	    1200	    10.100
  17.360	       118	    1200	    10.863
  17.380	        91	    1200	     9.539
  17.400	       113	    1200	    10.630
  17.420	       111	    1200	    10.536
  17.440	       126	    1200	    11.225
  17.460	       111	    1200	    10.536
  17.480	       122	    1200	    11.045
  17.500	       120	    1200	    10.954
  17.520	       126	    1200	    11.225
  17.540	       107	    1200	    10.344
  17.560	       115	    1200	    10.724
  17.580	       100	    1200	    10.000
  17.600	       104	    1200	    10.198
  17.620	       100	    1200	    10.000
  17.640	        97	    1200	     9.849
  17.660	       110	    1200	    10.488
  17.680	       124	    1200	    11.136
  17.700	       128	    1200	    11.314
  17.720	        87	    1200	     9.327
  17.740	       116	    1200	    10.770
  17.760	        99	    1200	     9.950
  17.780	       115	    1200	    10.724
  17.800	       116	    1200	    10.770
  17.820	       109	    1200	    10.440
  17.840	       103	    1200	    10.149
  17.860	       103	    1200	    10.149
  17.880	       128	    1200	    11.314
  17.900	       101	    1200	    10.050
  17.920	       133	    1200	    11.533
  17.940	       105	    1200	    10.247
  17.960	        98	    1200	     9.899
  17.980	       107	    1200	    10.344
  18.000	       128	    1200	    11.314
  18.020	       132	    1200	    11.489
  18.040	       125	    1200	    11.180
  18.060	       109	    1200	    10.440
  18.080	       108	    1200	    10.392
  18.100	        97	    1200	     9.849
  18.120	       113	    1200	    10.630
  18.140	       112	    1200	    10.583
  18.160	       120	    1200	    10.954
  18.180	       116	    1200	    10.770
  18.200	        95	    1200	     9.747
  18.220	       117	    1200	    10.817
  18.240	       100	    1200	    10.000
  18.260	       116	    1200	    10.770
  18.280	       125	    1200	    11.180
  18.300	       105	    1200	    10.247
  18.320	       112	    1200	    10.583
  18.340	       134	    1200	    11.576
  18.360	       104	    1200	    10.198
  18.380	        95	    1200	     9.747
  18.400	       125	    1200	    11.180
  18.420	       122	    1200	    11.045
  18.440	       116	    1200	    10.770
  18.460	        97	    1200	     9.849
  18.480	       123	    1200	    11.091
  18.500	       123	    1200	    11.091
  18.520	        98	    1200	     9.899
  18.540	       118	    1200	    10.863
  18.560	       116	    1200	    10.770
  18.580	       101	    1200	    10.050
  18.600	       112	    1200	    10.583
  18.620	       118	    1200	    10.863
  18.640	       113	    1200	    10.630
  18.660	       116	    1200	    10.770
  18.680	       107	    1200	    10.344
  18.700	       119	    1200	    10.909
  18.720	       122	    1200	    11.045
  18.740	       109	    1200	    10.440
  18.760	       121	    1200	    11.000
  18.780	       126	    1200	    11.225
  18.800	       103	    1200	    10.149
  18.820	       101	    1200	    10.050
  18.840	       114	    1200	    10.677
  18.860	       114	    1200	    10.677
  18.880	       118	    1200	    10.863
  18.900	        91	    1200	     9.539
  18.920	       103	    1200	    10.149
  18.940	       112	    1200	    10.583
  18.960	       112	    1200	    10.583
  18.980	       121	    1200	    11.000
  19.000	       113	    1200	    10.630
  19.020	        99	    1200	     9.950
  19.040	       105	    1200	    10.247
  19.060	       115	    1200	    10.724
  19.080	       111	    1200	    10.536
  19.100	       112	    1200	    10.583
  19.120	        94	    1200	     9.695
  19.140	        93	    1200	     9.644
  19.160	       110	    1200	    10.488
  19.180	       122	    1200	    11.045
  19.200	       135	    1200	    11.619
  19.220	        92	    1200	     9.592
  19.240	       123	    1200	    11.091
  19.260	        94	    1200	     9.695
  19.280	       105	    1200	    10.247
  19.300	       108	    1200	    10.392
  19.320	        98	    1200	     9.899
  19.340	       103	    1200	    10.149
  19.360	        99	    1200	     9.950
  19.380	       106	    1200	    10.296
  19.400	        97	    1200	     9.849
  19.420	       108	    1200	    10.392
  19.440	       120	    1200	    10.954
  19.460	       120	    1200	    10.954
  19.480	       115	    1200	    10.724
  19.500	       104	    1200	    10.198
  19.520	       111	    1200	    10.536
  19.540	       127	    1200	    11.269
  19.560	       119	    1200	    10.909
  19.580	       104	    1200	    10.198
  19.600	       101	    1200	    10.050
  19.620	       127	    1200	    11.269
  19.640	       110	    1200	    10.488
  19.660	       109	    1200	    10.440
  19.680	       123	    1200	    11.091
  19.700	       118	    1200	    10.863
  19.720	       118	    1200	    10.863
  19.740	       122	    1200	    11.045
  19.760	       117	    1200	    10.817
  19.780	        89	    1200	     9.434
  19.800	       108	    1200	    10.392
  19.820	       100	    1200	    10.000
  19.840	       115	    1200	    10.724
  19.860	       125	    1200	    11.180
  19.880	       101	    1200	    10.050
  19.900	       112	    1200	    10.583
  19.920	        97	    1200	     9.849
  19.940	       112	    1200	    10.583
  19.960	       124	    1200	    11.136
  19.980	       114	    1200	    10.677
  20.000	       113	    1200	    10.630
  20.020	       114	    1200	    10.677
  20.040	       108	    1200	    10.392
  20.060	       118	    1200	    10.863
  20.080	       103	    1200	    10.149
  20.100	       100	    1200	    10.000
  20.120	       110	    1200	    10.488
  20.140	       110	    1200	    10.488
  20.160	       116	    1200	    10.770
  20.180	       112	    1200	    10.583
  20.200	       111	    1200	    10.536
  20.220	       104	    1200	    10.198
  20.240	       121	    1200	    11.000
  20.260	        95	    1200	     9.747
  20.280	       107	    1200	    10.344
  20.300	       116	    1200	    10.770
  20.320	       115	    1200	    10.724
  20.340	       122	    1200	    11.045
  20.360	       125	    1200	    11.180
  20.380	        99	    1200	     9.950
  20.400	        91	    1200	     9.539
  20.420	       111	    1200	    10.536
  20.440	       109	    1200	    10.440
  20.460	       129	    1200	    11.358
  20.480	       109	    1200	    10.440
  20.500	       100	    1200	    10.000
  20.520	        96	    1200	     9.798
  20.540	       115	    1200	    10.724
  20.560	       104	    1200	    10.198
  20.580	        95	    1200	     9.747
  20.600	       106	    1200	    10.296
  20.620	       112	    1200	    10.583
  20.640	        99	    1200	     9.950
  20.660	       105	    1200	    10.247
  20.680	       123	    1200	    11.091
  20.700	       113	    1200	    10.630
  20.720	       107	    1200	    10.344
  20.740	       122	    1200	    11.045
  20.760	       104	    1200	    10.198
  20.780	       103	    1200	    10.149
  20.800	       123	    1200	    11.091
  20.820	       113	    1200	    10.630
  20.840	       119	    1200	    10.909
  20.860	       108	    1200	    10.392
  20.880	       129	    1200	    11.358
  20.900	       125	    1200	    11.180
  20.920	       137	    1200	    11.705
  20.940	       109	    1200	    10.440
  20.960	       115	    1200	    10.724
  20.980	        96	    1200	     9.798
  21.000	       115	    1200	    10.724
  21.020	       110	    1200	    10.488
  21.040	       118	    1200	    10.863
  21.060	       122	    1200	    11.045
  21.080	       110	    1200	    10.488
  21.100	       125	    1200	    11.180
  21.120	       114	    1200	    10.677
  21.140	       130	    1200	    11.402
  21.160	       103	    1200	    10.149
  21.180	       124	    1200	    11.136
  21.200	       113	    1200	    10.630
  21.220	       117	    1200	    10.817
  21.240	       103	    1200	    10.149
  21.260	       114	    1200	    10.677
  21.280	       103	    1200	    10.149
  21.300	       121	    1200	    11.000
  21.320	        95	    1200	     9.747
  21.340	       111	    1200	    10.536
  21.360	       104	    1200	    10.198
  21.380	       111	    1200	    10.536
  21.400	       103	    1200	    10.149
  21.420	       123	    1200	    11.091
  21.440	       110	    1200	    10.488
  21.460	       116	    1200	    10.770
  21.480	        85	    1200	     9.220
  21.500	       118	    1200	    10.863
  21.520	       113	    1200	    10.630
  21.540	        97	    1200	     9.849
  21.560	       107	    1200	    10.344
  21.580	       125	    1200	    11.180
  21.600	       109	    1200	    10.440
  21.620	       105	    1200	    10.247
  21.640	       114	    1200	    10.677
  21.660	       103	    1200	    10.149
  21.680	       118	    1200	    10.863
  21.700	       105	    1200	    10.247
  21.720	       101	    1200	    10.050
  21.740	       115	    1200	    10.724
  21.760	       119	    1200	    10.909
  21.780	        99	    1200	     9.950
  21.800	       118	    1200	    10.863
  21.820	       124	    1200	    11.136
  21.840	       119	    1200	    10.909
  21.860	       100	    1200	    10.000
  21.880	       126	    1200	    11.225
  21.900	       107	    1200	    10.344
  21.920	       121	    1200	    11.000
  21.940	       124	    1200	    11.136
  21.960	       108	    1200	    10.392
  21.980	       105	    1200	    10.247
  22.000	        94	    1200	     9.695
  22.020	       109	    1200	    10.440
  22.040	       125	    1200	    11.180
  22.060	       124	    1200	    11.136
  22.080	       117	    1200	    10.817
  22.100	       112	    1200	    10.583
  22.120	       103	    1200	    10.149
  22.140	       132	    1200	    11.489
  22.160	       115	    1200	    10.724
  22.180	       136	    1200	    11.662
  22.200	       117	    1200	    10.817
  22.220	        88	    1200	     9.381
  22.240	       119	    1200	    10.909
  22.260	       125	    1200	    11.180
  22.280	       105	    1200	    10.247
  22.300	       115	    1200	    10.724
  22.320	       104	    1200	    10.198
  22.340	       101	    1200	    10.050
  22.360	       111	    1200	    10.536
  22.380	       129	    1200	    11.358
  22.400	       113	    1200	    10.630
  22.420	       131	    1200	    11.446
  22.440	       112	    1200	    10.583
  22.460	       123	    1200	    11.091
  22.480	       121	    1200	    11.000
  22.500	       162	    1200	    12.728
  22.520	       162	    1200	    12.728
  22.540	       151	    1200	    12.288
  22.560	       155	    1200	    12.450
  22.580	       141	    1200	    11.874
  22.600	       176	    1200	    13.266
  22.620	       172	    1200	    13.115
  22.640	       177	    1200	    13.304
  22.660	       178	    1200	    13.342
  22.680	       177	    1200	    13.304
  22.700	       169	    1200	    13.000
  22.720	       164	    1200	    12.806
  22.740	       136	    1200	    11.662
  22.760	       167	    1200	    12.923
  22.780	       151	    1200	    12.288
  22.800	       134	    1200	    11.576
  22.820	       125	    1200	    11.180
  22.840	       130	    1200	    11.402
  22.860	       106	    1200	    10.296
  22.880	       119	    1200	    10.909
  22.900	       127	    1200	    11.269
  22.920	       138	    1200	    11.747
  22.940	       109	    1200	    10.440
  22.960	       112	    1200	    10.583
  22.980	       102	    1200	    10.100
  23.000	       108	    1200	    10.392
  23.020	        97	    1200	     9.849
  23.040	       102	    1200	    10.100
  23.060	        99	    1200	     9.950
  23.080	        80	    1200	     8.944
  23.100	       111	    1200	    10.536
  23.120	        94	    1200	     9.695
  23.140	       119	    1200	    10.909
  23.160	       100	    1200	    10.000
  23.180	       120	    1200	    10.954
  23.200	       105	    1200	    10.247
  23.220	       120	    1200	    10.954
  23.240	       118	    1200	    10.863
  23.260	       125	    1200	    11.180
  23.280	       100	    1200	    10.000
  23.300	       113	    1200	    10.630
  23.320	       120	    1200	    10.954
  23.340	       103	    1200	    10.149
  23.360	       111	    1200	    10.536
  23.380	       103	    1200	    10.149
  23.400	       122	    1200	    11.045
  23.420	        95	    1200	     9.747
  23.440	        90	    1200	     9.487
  23.460	       105	    1200	    10.247
  23.480	       106	    1200	    10.296
  23.500	       108	    1200	    10.392
  23.520	       110	    1200	    10.488
  23.540	       113	    1200	    10.630
  23.560	       113	    1200	    10.630
  23.580	       123	    1200	    11.091
  23.600	       100	    1200	    10.000
  23.620	       120	    1200	    10.954
  23.640	       100	    1200	    10.000
  23.660	        92	    1200	     9.592
  23.680	       103	    1200	    10.149
  23.700	       105	    1200	    10.247
  23.720	       113	    1200	    10.630
  23.740	       117	    1200	    10.817
  23.760	        97	    1200	     9.849
  23.780	       131	    1200	    11.446
  23.800	        93	    1200	     9.644
  23.820	       104	    1200	    10.198
  23.840	       111	    1200	    10.536
  23.860	        90	    1200	     9.487
  23.880	       111	    1200	    10.536
  23.900	        84	    1200	     9.165
  23.920	       124	    1200	    11.136
  23.940	       107	    1200	    10.344
  23.960	       102	    1200	    10.100
  23.980	       101	    1200	    10.050
  24.000	       122	    1200	    11.045
  24.020	       104	    1200	    10.198
  24.040	       118	    1200	    10.863
  24.060	       109	    1200	    10.440
