         ID: 

    Comment: 

Scan Type: Normal
Start Angle: 15 deg.
Stop Angle: 90 deg.
Num Points: 3751
Step Size: 0.02 deg.
Datafile Res: 1600 
Scan Rate: 1.000000
Scan Mode: Continuous
Wavelength: 1.540562

Diffractometer Optics:
		Detector:
			 Type: Fixed Slits
			 X2 Configuration: No
		Tube: 
			 Type: Fixed Slits
			 X2 Configuration: No


Axis[0]
	 Selected   : no 
	 Iterative  : no 
	 Start Angle: 0.000000 
	 Stop Angle : 0.000000 
	 Step Size  : 0.000000 
	 Oscillating: no 

Axis[1]
	 Selected   : no 
	 Iterative  : no 
	 Start Angle: 0.000000 
	 Stop Angle : 0.000000 
	 Step Size  : 0.000000 
	 Oscillating: no 

Axis[2]
	 Selected   : no 
	 Iterative  : no 
	 Start Angle: 0.000000 
	 Stop Angle : 0.000000 
	 Step Size  : 0.000000 
	 Oscillating: no 

Axis[3]
	 Selected   : no 
	 Iterative  : no 
	 Start Angle: 0.000000 
	 Stop Angle : 0.000000 
	 Step Size  : 0.000000 
	 Oscillating: no 

Axis[4]
	 Selected   : no 
	 Iterative  : no 
	 Start Angle: 0.000000 
	 Stop Angle : 0.000000 
	 Step Size  : 0.000000 
	 Oscillating: no 

Axis[5]
	 Selected   : no 
	 Iterative  : no 
	 Start Angle: 0.000000 
	 Stop Angle : 0.000000 
	 Step Size  : 0.000000 
	 Oscillating: no 

Axis[6]
	 Selected   : no 
	 Iterative  : no 
	 Start Angle: 0.000000 
	 Stop Angle : 0.000000 
	 Step Size  : 0.000000 
	 Oscillating: no 

Axis[7]
	 Selected   : no 
	 Iterative  : no 
	 Start Angle: 0.000000 
	 Stop Angle : 0.000000 
	 Step Size  : 0.000000 
	 Oscillating: no 

Axis[8]
	 Selected   : no 
	 Iterative  : no 
	 Start Angle: 0.000000 
	 Stop Angle : 0.000000 
	 Step Size  : 0.000000 
	 Oscillating: no 

Axis[9]
	 Selected   : no 
	 Iterative  : no 
	 Start Angle: 0.000000 
	 Stop Angle : 0.000000 
	 Step Size  : 0.000000 
	 Oscillating: no 




	   Deg.    Counts 	   Time 	    ESD   

Range 0
  15.000	       132	    1200	    11.489
  15.020	       115	    1200	    10.724
  15.040	       119	    1200	    10.909
  15.060	       117	    1200	    10.817
  15.080	       104	    1200	    10.198
  15.100	       109	    1200	    10.440
  15.120	       100	    1200	    10.000
  15.140	       115	    1200	    10.724
  15.160	       117	    1200	    10.817
  15.180	       113	    1200	    10.630
  15.200	       129	    1200	    11.358
  15.220	       112	    1200	    10.583
  15.240	       115	    1200	    10.724
  15.260	       108	    1200	    10.392
  15.280	       123	    1200	    11.091
  15.300	       115	    1200	    10.724
  15.320	       123	    1200	    11.091
  15.340	       109	    1200	    10.440
  15.360	       107	    1200	    10.344
  15.380	       119	    1200	    10.909
  15.400	        95	    1200	     9.747
  15.420	       130	    1200	    11.402
  15.440	       109	    1200	    10.440
  15.460	       131	    1200	    11.446
  15.480	       115	    1200	    10.724
  15.500	       113	    1200	    10.630
  15.520	       128	    1200	    11.314
  15.540	       120	    1200	    10.954
  15.560	       107	    1200	    10.344
  15.580	       123	    1200	    11.091
  15.600	       117	    1200	    10.817
  15.620	       110	    1200	    10.488
  15.640	       132	    1200	    11.489
  15.660	       121	    1200	    11.000
  15.680	       112	    1200	    10.583
  15.700	       114	    1200	    10.677
  15.720	       105	    1200	    10.247
  15.740	       120	    1200	    10.954
  15.760	       107	    1200	    10.344
  15.780	       114	    1200	    10.677
  15.800	       115	    1200	    10.724
  15.820	       122	    1200	    11.045
  15.840	       121	    1200	    11.000
  15.860	       106	    1200	    10.296
  15.880	       102	    1200	    10.100
  15.900	       116	    1200	    10.770
  15.920	       106	    1200	    10.296
  15.940	       137	    1200	    11.705
  15.960	       107	    1200	    10.344
  15.980	       109	    1200	    10.440
  16.000	       100	    1200	    10.000
  16.020	        97	    1200	     9.849
  16.040	        99	    1200	     9.950
  16.060	       122	    1200	    11.045
  16.080	       129	    1200	    11.358
  16.100	       102	    1200	    10.100
  16.120	       108	    1200	    10.392
  16.140	       104	    1200	    10.198
  16.160	       119	    1200	    10.909
  16.180	       108	    1200	    10.392
  16.200	       107	    1200	    10.344
  16.220	       118	    1200	    10.863
  16.240	       123	    1200	    11.091
  16.260	       109	    1200	    10.440
  16.280	       106	    1200	    10.296
  16.300	       114	    1200	    10.677
  16.320	        95	    1200	     9.747
  16.340	       119	    1200	    10.909
  16.360	       119	    1200	    10.909
  16.380	       128	    1200	    11.314
  16.400	        99	    1200	     9.950
  16.420	       112	    1200	    10.583
  16.440	       114	    1200	    10.677
  16.460	       124	    1200	    11.136
  16.480	       115	    1200	    10.724
  16.500	       126	    1200	    11.225
  16.520	       115	    1200	    10.724
  16.540	       111	    1200	    10.536
  16.560	       116	    1200	    10.770
  16.580	        93	    1200	     9.644
  16.600	       128	    1200	    11.314
  16.620	       115	    1200	    10.724
  16.640	       114	    1200	    10.677
  16.660	       115	    1200	    10.724
  16.680	        92	    1200	     9.592
  16.700	       116	    1200	    10.770
  16.720	       106	    1200	    10.296
  16.740	       104	    1200	    10.198
  16.760	       129	    1200	    11.358
  16.780	       114	    1200	    10.677
  16.800	       105	    1200	    10.247
  16.820	       123	    1200	    11.091
  16.840	       125	    1200	    11.180
  16.860	       127	    1200	    11.269
  16.880	       108	    1200	    10.392
  16.900	       122	    1200	    11.045
  16.920	       126	    1200	    11.225
  16.940	       108	    1200	    10.392
  16.960	       102	    1200	    10.100
  16.980	       106	    1200	    10.296
  17.000	       106	    1200	    10.296
  17.020	       108	    1200	    10.392
  17.040	        99	    1200	     9.950
  17.060	       113	    1200	    10.630
  17.080	       108	    1200	    10.392
  17.100	       113	    1200	    10.630
  17.120	       112	    1200	    10.583
  17.140	       114	    1200	    10.677
  17.160	       123	    1200	    11.091
  17.180	       103	    1200	    10.149
  17.200	       134	    1200	    11.576
  17.220	        76	    1200	     8.718
  17.240	        97	    1200	     9.849
  17.260	        95	    1200	     9.747
  17.280	       110	    1200	    10.488
  17.300	       119	    1200	    10.909
  17.320	       131	    1200	    11.446
  17.340	        89	    1200	     9.434
  17.360	       107	    1200	    10.344
  17.380	       101	    1200	    10.050
  17.400	       108	    1200	    10.392
  17.420	       112	    1200	    10.583
  17.440	       105	    1200	    10.247
  17.460	       121	    1200	    11.000
  17.480	       105	    1200	    10.247
  17.500	       101	    1200	    10.050
  17.520	        99	    1200	     9.950
  17.540	       127	    1200	    11.269
  17.560	       129	    1200	    11.358
  17.580	       112	    1200	    10.583
  17.600	       117	    1200	    10.817
  17.620	       109	    1200	    10.440
  17.640	       123	    1200	    11.091
  17.660	       106	    1200	    10.296
  17.680	       110	    1200	    10.488
  17.700	       107	    1200	    10.344
  17.720	        94	    1200	     9.695
  17.740	       111	    1200	    10.536
  17.760	       126	    1200	    11.225
  17.780	       116	    1200	    10.770
  17.800	       101	    1200	    10.050
  17.820	       113	    1200	    10.630
  17.840	       115	    1200	    10.724
  17.860	       105	    1200	    10.247
  17.880	       107	    1200	    10.344
  17.900	       120	    1200	    10.954
  17.920	       121	    1200	    11.000
  17.940	       110	    1200	    10.488
  17.960	       105	    1200	    10.247
  17.980	       110	    1200	    10.488
  18.000	        96	    1200	     9.798
  18.020	       100	    1200	    10.000
  18.040	       119	    1200	    10.909
  18.060	       101	    1200	    10.050
  18.080	        99	    1200	     9.950
  18.100	       100	    1200	    10.000
  18.120	       121	    1200	    11.000
  18.140	       121	    1200	    11.000
  18.160	       107	    1200	    10.344
  18.180	       120	    1200	    10.954
  18.200	       115	    1200	    10.724
  18.220	        98	    1200	     9.899
  18.240	       136	    1200	    11.662
  18.260	        95	    1200	     9.747
  18.280	       110	    1200	    10.488
  18.300	       102	    1200	    10.100
  18.320	       107	    1200	    10.344
  18.340	       105	    1200	    10.247
  18.360	       126	    1200	    11.225
  18.380	       113	    1200	    10.630
  18.400	       105	    1200	    10.247
  18.420	       106	    1200	    10.296
  18.440	       113	    1200	    10.630
  18.460	        97	    1200	     9.849
  18.480	       117	    1200	    10.817
  18.500	       107	    1200	    10.344
  18.520	       110	    1200	    10.488
  18.540	       119	    1200	    10.909
  18.560	       102	    1200	    10.100
  18.580	       111	    1200	    10.536
  18.600	       107	    1200	    10.344
  18.620	       119	    1200	    10.909
  18.640	       108	    1200	    10.392
  18.660	       109	    1200	    10.440
  18.680	       129	    1200	    11.358
  18.700	       124	    1200	    11.136
  18.720	       121	    1200	    11.000
  18.740	        99	    1200	     9.950
  18.760	       119	    1200	    10.909
  18.780	       114	    1200	    10.677
  18.800	       100	    1200	    10.000
  18.820	       117	    1200	    10.817
  18.840	       121	    1200	    11.000
  18.860	       118	    1200	    10.863
  18.880	       109	    1200	    10.440
  18.900	       110	    1200	    10.488
  18.920	       116	    1200	    10.770
  18.940	       104	    1200	    10.198
  18.960	       112	    1200	    10.583
  18.980	       113	    1200	    10.630
  19.000	        98	    1200	     9.899
  19.020	       115	    1200	    10.724
  19.040	       110	    1200	    10.488
  19.060	        99	    1200	     9.950
  19.080	       117	    1200	    10.817
  19.100	       111	    1200	    10.536
  19.120	       108	    1200	    10.392
  19.140	       122	    1200	    11.045
  19.160	       116	    1200	    10.770
  19.180	       119	    1200	    10.909
  19.200	       104	    1200	    10.198
  19.220	       119	    1200	    10.909
  19.240	       112	    1200	    10.583
  19.260	       117	    1200	    10.817
  19.280	       119	    1200	    10.909
  19.300	       123	    1200	    11.091
  19.320	       109	    1200	    10.440
  19.340	       108	    1200	    10.392
  19.360	       103	    1200	    10.149
  19.380	       127	    1200	    11.269
  19.400	        96	    1200	     9.798
  19.420	       107	    1200	    10.344
  19.440	       116	    1200	    10.770
  19.460	        94	    1200	     9.695
  19.480	       115	    1200	    10.724
  19.500	       114	    1200	    10.677
  19.520	       102	    1200	    10.100
  19.540	       115	    1200	    10.724
  19.560	       102	    1200	    10.100
  19.580	       119	    1200	    10.909
  19.600	       117	    1200	    10.817
  19.620	       113	    1200	    10.630
  19.640	       123	    1200	    11.091
  19.660	       114	    1200	    10.677
  19.680	       107	    1200	    10.344
  19.700	        91	    1200	     9.539
  19.720	       121	    1200	    11.000
  19.740	       113	    1200	    10.630
  19.760	       111	    1200	    10.536
  19.780	       111	    1200	    10.536
  19.800	       114	    1200	    10.677
  19.820	       125	    1200	    11.180
  19.840	       129	    1200	    11.358
  19.860	       115	    1200	    10.724
  19.880	       106	    1200	    10.296
  19.900	       103	    1200	    10.149
  19.920	        95	    1200	     9.747
  19.940	       115	    1200	    10.724
  19.960	        98	    1200	     9.899
  19.980	       113	    1200	    10.630
  20.000	       119	    1200	    10.909
  20.020	       105	    1200	    10.247
  20.040	        93	    1200	     9.644
  20.060	       103	    1200	    10.149
  20.080	       106	    1200	    10.296
  20.100	       114	    1200	    10.677
  20.120	       105	    1200	    10.247
  20.140	        91	    1200	     9.539
  20.160	       115	    1200	    10.724
  20.180	       121	    1200	    11.000
  20.200	       108	    1200	    10.392
  20.220	       107	    1200	    10.344
  20.240	       103	    1200	    10.149
  20.260	       129	    1200	    11.358
  20.280	        96	    1200	     9.798
  20.300	       129	    1200	    11.358
  20.320	        99	    1200	     9.950
  20.340	       101	    1200	    10.050
  20.360	       107	    1200	    10.344
  20.380	       105	    1200	    10.247
  20.400	       133	    1200	    11.533
  20.420	       106	    1200	    10.296
  20.440	       101	    1200	    10.050
  20.460	       131	    1200	    11.446
  20.480	       103	    1200	    10.149
  20.500	       130	    1200	    11.402
  20.520	       102	    1200	    10.100
  20.540	       121	    1200	    11.000
  20.560	       128	    1200	    11.314
  20.580	       110	    1200	    10.488
  20.600	       107	    1200	    10.344
  20.620	       122	    1200	    11.045
  20.640	       112	    1200	    10.583
  20.660	        94	    1200	     9.695
  20.680	       101	    1200	    10.050
  20.700	        93	    1200	     9.644
  20.720	       119	    1200	    10.909
  20.740	       102	    1200	    10.100
  20.760	       114	    1200	    10.677
  20.780	       104	    1200	    10.198
  20.800	        95	    1200	     9.747
  20.820	       104	    1200	    10.198
  20.840	       105	    1200	    10.247
  20.860	       118	    1200	    10.863
  20.880	       113	    1200	    10.630
  20.900	       112	    1200	    10.583
  20.920	       117	    1200	    10.817
  20.940	        97	    1200	     9.849
  20.960	       112	    1200	    10.583
  20.980	       122	    1200	    11.045
  21.000	       103	    1200	    10.149
  21.020	       120	    1200	    10.954
  21.040	       134	    1200	    11.576
  21.060	       106	    1200	    10.296
  21.080	        97	    1200	     9.849
  21.100	       100	    1200	    10.000
  21.120	       107	    1200	    10.344
  21.140	       114	    1200	    10.677
  21.160	       116	    1200	    10.770
  21.180	       103	    1200	    10.149
  21.200	        91	    1200	     9.539
  21.220	       104	    1200	    10.198
  21.240	       124	    1200	    11.136
  21.260	       114	    1200	    10.677
  21.280	        89	    1200	     9.434
  21.300	       118	    1200	    10.863
  21.320	        96	    1200	     9.798
  21.340	       111	    1200	    10.536
  21.360	        98	    1200	     9.899
  21.380	       105	    1200	    10.247
  21.400	       127	    1200	    11.269
  21.420	       115	    1200	    10.724
  21.440	        86	    1200	     9.274
  21.460	       107	    1200	    10.344
  21.480	       123	    1200	    11.091
  21.500	       112	    1200	    10.583
  21.520	       113	    1200	    10.630
  21.540	       117	    1200	    10.817
  21.560	       104	    1200	    10.198
  21.580	        97	    1200	     9.849
  21.600	       108	    1200	    10.392
  21.620	       106	    1200	    10.296
  21.640	       111	    1200	    10.536
  21.660	       108	    1200	    10.392
  21.680	       106	    1200	    10.296
  21.700	       110	    1200	    10.488
  21.720	        98	    1200	     9.899
  21.740	       107	    1200	    10.344
  21.760	       109	    1200	    10.440
  21.780	       108	    1200	    10.392
  21.800	        98	    1200	     9.899
  21.820	       103	    1200	    10.149
  21.840	       120	    1200	    10.954
  21.860	       100	    1200	    10.000
  21.880	        94	    1200	     9.695
  21.900	       103	    1200	    10.149
  21.920	        87	    1200	     9.327
  21.940	       116	    1200	    10.770
  21.960	       119	    1200	    10.909
  21.980	       101	    1200	    10.050
  22.000	       113	    1200	    10.630
  22.020	       108	    1200	    10.392
  22.040	        93	    1200	     9.644
  22.060	        96	    1200	     9.798
  22.080	       120	    1200	    10.954
  22.100	        96	    1200	     9.798
  22.120	       101	    1200	    10.050
  22.140	       105	    1200	    10.247
  22.160	       113	    1200	    10.630
  22.180	        98	    1200	     9.899
  22.200	       112	    1200	    10.583
  22.220	        95	    1200	     9.747
  22.240	       112	    1200	    10.583
  22.260	        98	    1200	     9.899
  22.280	       115	    1200	    10.724
  22.300	       121	    1200	    11.000
  22.320	       129	    1200	    11.358
  22.340	        88	    1200	     9.381
  22.360	       119	    1200	    10.909
  22.380	       132	    1200	    11.489
  22.400	       121	    1200	    11.000
  22.420	       139	    1200	    11.790
  22.440	       133	    1200	    11.533
  22.460	       156	    1200	    12.490
  22.480	       141	    1200	    11.874
  22.500	       159	    1200	    12.610
  22.520	       157	    1200	    12.530
  22.540	       174	    1200	    13.191
  22.560	       167	    1200	    12.923
  22.580	       173	    1200	    13.153
  22.600	       159	    1200	    12.610
  22.620	       139	    1200	    11.790
  22.640	       155	    1200	    12.450
  22.660	       128	    1200	    11.314
  22.680	       120	    1200	    10.954
  22.700	       108	    1200	    10.392
  22.720	       103	    1200	    10.149
  22.740	       113	    1200	    10.630
  22.760	       106	    1200	    10.296
  22.780	       106	    1200	    10.296
  22.800	       111	    1200	    10.536
  22.820	        95	    1200	     9.747
  22.840	       104	    1200	    10.198
  22.860	        84	    1200	     9.165
  22.880	        92	    1200	     9.592
  22.900	        98	    1200	     9.899
  22.920	       120	    1200	    10.954
  22.940	       117	    1200	    10.817
  22.960	       102	    1200	    10.100
  22.980	       107	    1200	    10.344
  23.000	       103	    1200	    10.149
  23.020	       108	    1200	    10.392
  23.040	        90	    1200	     9.487
  23.060	        96	    1200	     9.798
  23.080	       101	    1200	    10.050
  23.100	       103	    1200	    10.149
  23.120	       119	    1200	    10.909
  23.140	        89	    1200	     9.434
  23.160	        84	    1200	     9.165
  23.180	       112	    1200	    10.583
  23.200	        81	    1200	     9.000
  23.220	       102	    1200	    10.100
  23.240	       105	    1200	    10.247
  23.260	       103	    1200	    10.149
  23.280	        97	    1200	     9.849
  23.300	       106	    1200	    10.296
  23.320	        91	    1200	     9.539
  23.340	        95	    1200	     9.747
  23.360	        94	    1200	     9.695
  23.380	       101	    1200	    10.050
  23.400	        91	    1200	     9.539
  23.420	        86	    1200	     9.274
  23.440	        95	    1200	     9.747
  23.460	       101	    1200	    10.050
  23.480	        98	    1200	     9.899
  23.500	        80	    1200	     8.944
  23.520	        84	    1200	     9.165
  23.540	        97	    1200	     9.849
  23.560	        96	    1200	     9.798
  23.580	        88	    1200	     9.381
  23.600	        85	    1200	     9.220
  23.620	       108	    1200	    10.392
  23.640	       120	    1200	    10.954
  23.660	       101	    1200	    10.050
  23.680	        98	    1200	     9.899
  23.700	        96	    1200	     9.798
  23.720	        84	    1200	     9.165
  23.740	        90	    1200	     9.487
  23.760	       109	    1200	    10.440
  23.780	       105	    1200	    10.247
  23.800	        90	    1200	     9.487
  23.820	        92	    1200	     9.592
  23.840	        98	    1200	     9.899
  23.860	        91	    1200	     9.539
  23.880	        94	    1200	     9.695
  23.900	       101	    1200	    10.050
  23.920	        96	    1200	     9.798
  23.940	        83	    1200	     9.110
  23.960	        76	    1200	     8.718
  23.980	        87	    1200	     9.327
  24.000	        82	    1200	     9.055
  24.020	       108	    1200	    10.392
  24.040	        93	    1200	     9.644
  24.060	        91	    1200	     9.539
