         ID: 

    Comment: 

Scan Type: Normal
Start Angle: 15 deg.
Stop Angle: 90 deg.
Num Points: 3751
Step Size: 0.02 deg.
Datafile Res: 1600 
Scan Rate: 1.000000
Scan Mode: Continuous
Wavelength: 1.540562

Diffractometer Optics:
		Detector:
			 Type: Fixed Slits
			 X2 Configuration: No
		Tube: 
			 Type: Fixed Slits
			 X2 Configuration: No


Axis[0]
	 Selected   : no 
	 Iterative  : no 
	 Start Angle: 0.000000 
	 Stop Angle : 0.000000 
	 Step Size  : 0.000000 
	 Oscillating: no 

Axis[1]
	 Selected   : no 
	 Iterative  : no 
	 Start Angle: 0.000000 
	 Stop Angle : 0.000000 
	 Step Size  : 0.000000 
	 Oscillating: no 

Axis[2]
	 Selected   : no 
	 Iterative  : no 
	 Start Angle: 0.000000 
	 Stop Angle : 0.000000 
	 Step Size  : 0.000000 
	 Oscillating: no 

Axis[3]
	 Selected   : no 
	 Iterative  : no 
	 Start Angle: 0.000000 
	 Stop Angle : 0.000000 
	 Step Size  : 0.000000 
	 Oscillating: no 

Axis[4]
	 Selected   : no 
	 Iterative  : no 
	 Start Angle: 0.000000 
	 Stop Angle : 0.000000 
	 Step Size  : 0.000000 
	 Oscillating: no 

Axis[5]
	 Selected   : no 
	 Iterative  : no 
	 Start Angle: 0.000000 
	 Stop Angle : 0.000000 
	 Step Size  : 0.000000 
	 Oscillating: no 

Axis[6]
	 Selected   : no 
	 Iterative  : no 
	 Start Angle: 0.000000 
	 Stop Angle : 0.000000 
	 Step Size  : 0.000000 
	 Oscillating: no 

Axis[7]
	 Selected   : no 
	 Iterative  : no 
	 Start Angle: 0.000000 
	 Stop Angle : 0.000000 
	 Step Size  : 0.000000 
	 Oscillating: no 

Axis[8]
	 Selected   : no 
	 Iterative  : no 
	 Start Angle: 0.000000 
	 Stop Angle : 0.000000 
	 Step Size  : 0.000000 
	 Oscillating: no 

Axis[9]
	 Selected   : no 
	 Iterative  : no 
	 Start Angle: 0.000000 
	 Stop Angle : 0.000000 
	 Step Size  : 0.000000 
	 Oscillating: no 




	   Deg.    Counts 	   Time 	    ESD   

Range 0
  15.000	       108	    1200	    10.392
  15.020	       104	    1200	    10.198
  15.040	       136	    1200	    11.662
  15.060	       111	    1200	    10.536
  15.080	       124	    1200	    11.136
  15.100	       122	    1200	    11.045
  15.120	       129	    1200	    11.358
  15.140	       119	    1200	    10.909
  15.160	       117	    1200	    10.817
  15.180	       127	    1200	    11.269
  15.200	       114	    1200	    10.677
  15.220	       118	    1200	    10.863
  15.240	       116	    1200	    10.770
  15.260	       136	    1200	    11.662
  15.280	       112	    1200	    10.583
  15.300	       120	    1200	    10.954
  15.320	       119	    1200	    10.909
  15.340	       135	    1200	    11.619
  15.360	       121	    1200	    11.000
  15.380	       112	    1200	    10.583
  15.400	       131	    1200	    11.446
  15.420	       126	    1200	    11.225
  15.440	       108	    1200	    10.392
  15.460	       111	    1200	    10.536
  15.480	       144	    1200	    12.000
  15.500	       118	    1200	    10.863
  15.520	       141	    1200	    11.874
  15.540	       113	    1200	    10.630
  15.560	       109	    1200	    10.440
  15.580	       119	    1200	    10.909
  15.600	       130	    1200	    11.402
  15.620	       106	    1200	    10.296
  15.640	       128	    1200	    11.314
  15.660	       132	    1200	    11.489
  15.680	       134	    1200	    11.576
  15.700	       119	    1200	    10.909
  15.720	       126	    1200	    11.225
  15.740	       109	    1200	    10.440
  15.760	        96	    1200	     9.798
  15.780	       115	    1200	    10.724
  15.800	       100	    1200	    10.000
  15.820	       123	    1200	    11.091
  15.840	       125	    1200	    11.180
  15.860	       110	    1200	    10.488
  15.880	        92	    1200	     9.592
  15.900	       118	    1200	    10.863
  15.920	       106	    1200	    10.296
  15.940	       135	    1200	    11.619
  15.960	       105	    1200	    10.247
  15.980	       137	    1200	    11.705
  16.000	       123	    1200	    11.091
  16.020	       131	    1200	    11.446
  16.040	       106	    1200	    10.296
  16.060	       123	    1200	    11.091
  16.080	       148	    1200	    12.166
  16.100	       129	    1200	    11.358
  16.120	       116	    1200	    10.770
  16.140	       128	    1200	    11.314
  16.160	       128	    1200	    11.314
  16.180	       136	    1200	    11.662
  16.200	       121	    1200	    11.000
  16.220	       123	    1200	    11.091
  16.240	       110	    1200	    10.488
  16.260	       106	    1200	    10.296
  16.280	       136	    1200	    11.662
  16.300	       102	    1200	    10.100
  16.320	       124	    1200	    11.136
  16.340	       129	    1200	    11.358
  16.360	       131	    1200	    11.446
  16.380	       126	    1200	    11.225
  16.400	       127	    1200	    11.269
  16.420	       122	    1200	    11.045
  16.440	       135	    1200	    11.619
  16.460	       127	    1200	    11.269
  16.480	       133	    1200	    11.533
  16.500	       126	    1200	    11.225
  16.520	       119	    1200	    10.909
  16.540	       117	    1200	    10.817
  16.560	       116	    1200	    10.770
  16.580	       107	    1200	    10.344
  16.600	       104	    1200	    10.198
  16.620	       116	    1200	    10.770
  16.640	       101	    1200	    10.050
  16.660	       101	    1200	    10.050
  16.680	       129	    1200	    11.358
  16.700	       107	    1200	    10.344
  16.720	       125	    1200	    11.180
  16.740	       112	    1200	    10.583
  16.760	       104	    1200	    10.198
  16.780	       131	    1200	    11.446
  16.800	       132	    1200	    11.489
  16.820	       120	    1200	    10.954
  16.840	       120	    1200	    10.954
  16.860	       134	    1200	    11.576
  16.880	       117	    1200	    10.817
  16.900	       119	    1200	    10.909
  16.920	       117	    1200	    10.817
  16.940	       136	    1200	    11.662
  16.960	       139	    1200	    11.790
  16.980	       120	    1200	    10.954
  17.000	       114	    1200	    10.677
  17.020	       114	    1200	    10.677
  17.040	       115	    1200	    10.724
  17.060	       150	    1200	    12.247
  17.080	       145	    1200	    12.042
  17.100	       125	    1200	    11.180
  17.120	       134	    1200	    11.576
  17.140	       143	    1200	    11.958
  17.160	       115	    1200	    10.724
  17.180	       134	    1200	    11.576
  17.200	       119	    1200	    10.909
  17.220	       121	    1200	    11.000
  17.240	       114	    1200	    10.677
  17.260	       143	    1200	    11.958
  17.280	       122	    1200	    11.045
  17.300	       118	    1200	    10.863
  17.320	        94	    1200	     9.695
  17.340	       115	    1200	    10.724
  17.360	        97	    1200	     9.849
  17.380	       117	    1200	    10.817
  17.400	       129	    1200	    11.358
  17.420	       137	    1200	    11.705
  17.440	       114	    1200	    10.677
  17.460	       126	    1200	    11.225
  17.480	       130	    1200	    11.402
  17.500	       129	    1200	    11.358
  17.520	       117	    1200	    10.817
  17.540	       114	    1200	    10.677
  17.560	       113	    1200	    10.630
  17.580	       107	    1200	    10.344
  17.600	       125	    1200	    11.180
  17.620	       113	    1200	    10.630
  17.640	       120	    1200	    10.954
  17.660	       131	    1200	    11.446
  17.680	       124	    1200	    11.136
  17.700	       123	    1200	    11.091
  17.720	       126	    1200	    11.225
  17.740	       119	    1200	    10.909
  17.760	       118	    1200	    10.863
  17.780	       130	    1200	    11.402
  17.800	       100	    1200	    10.000
  17.820	       143	    1200	    11.958
  17.840	       129	    1200	    11.358
  17.860	       145	    1200	    12.042
  17.880	       134	    1200	    11.576
  17.900	       142	    1200	    11.916
  17.920	       107	    1200	    10.344
  17.940	       141	    1200	    11.874
  17.960	       116	    1200	    10.770
  17.980	       125	    1200	    11.180
  18.000	       120	    1200	    10.954
  18.020	       112	    1200	    10.583
  18.040	       104	    1200	    10.198
  18.060	       132	    1200	    11.489
  18.080	       123	    1200	    11.091
  18.100	       136	    1200	    11.662
  18.120	       121	    1200	    11.000
  18.140	       138	    1200	    11.747
  18.160	       116	    1200	    10.770
  18.180	       117	    1200	    10.817
  18.200	       122	    1200	    11.045
  18.220	       115	    1200	    10.724
  18.240	       104	    1200	    10.198
  18.260	       108	    1200	    10.392
  18.280	       129	    1200	    11.358
  18.300	       126	    1200	    11.225
  18.320	       129	    1200	    11.358
  18.340	       116	    1200	    10.770
  18.360	       128	    1200	    11.314
  18.380	       125	    1200	    11.180
  18.400	       111	    1200	    10.536
  18.420	       129	    1200	    11.358
  18.440	       148	    1200	    12.166
  18.460	       140	    1200	    11.832
  18.480	       110	    1200	    10.488
  18.500	       128	    1200	    11.314
  18.520	       113	    1200	    10.630
  18.540	       113	    1200	    10.630
  18.560	       119	    1200	    10.909
  18.580	       114	    1200	    10.677
  18.600	       121	    1200	    11.000
  18.620	       116	    1200	    10.770
  18.640	       119	    1200	    10.909
  18.660	       129	    1200	    11.358
  18.680	       122	    1200	    11.045
  18.700	       117	    1200	    10.817
  18.720	       110	    1200	    10.488
  18.740	       133	    1200	    11.533
  18.760	       125	    1200	    11.180
  18.780	       102	    1200	    10.100
  18.800	       120	    1200	    10.954
  18.820	       132	    1200	    11.489
  18.840	       123	    1200	    11.091
  18.860	       126	    1200	    11.225
  18.880	       106	    1200	    10.296
  18.900	        99	    1200	     9.950
  18.920	       130	    1200	    11.402
  18.940	       124	    1200	    11.136
  18.960	       112	    1200	    10.583
  18.980	       111	    1200	    10.536
  19.000	       110	    1200	    10.488
  19.020	       120	    1200	    10.954
  19.040	       126	    1200	    11.225
  19.060	       107	    1200	    10.344
  19.080	       116	    1200	    10.770
  19.100	       116	    1200	    10.770
  19.120	       106	    1200	    10.296
  19.140	       130	    1200	    11.402
  19.160	       135	    1200	    11.619
  19.180	       126	    1200	    11.225
  19.200	       125	    1200	    11.180
  19.220	       128	    1200	    11.314
  19.240	       129	    1200	    11.358
  19.260	       133	    1200	    11.533
  19.280	       121	    1200	    11.000
  19.300	       141	    1200	    11.874
  19.320	       112	    1200	    10.583
  19.340	       122	    1200	    11.045
  19.360	       118	    1200	    10.863
  19.380	       114	    1200	    10.677
  19.400	       127	    1200	    11.269
  19.420	       126	    1200	    11.225
  19.440	       138	    1200	    11.747
  19.460	       133	    1200	    11.533
  19.480	       129	    1200	    11.358
  19.500	       145	    1200	    12.042
  19.520	       107	    1200	    10.344
  19.540	       133	    1200	    11.533
  19.560	       129	    1200	    11.358
  19.580	       109	    1200	    10.440
  19.600	       133	    1200	    11.533
  19.620	       106	    1200	    10.296
  19.640	       129	    1200	    11.358
  19.660	       124	    1200	    11.136
  19.680	       136	    1200	    11.662
  19.700	       129	    1200	    11.358
  19.720	       131	    1200	    11.446
  19.740	       122	    1200	    11.045
  19.760	       138	    1200	    11.747
  19.780	       130	    1200	    11.402
  19.800	       125	    1200	    11.180
  19.820	       151	    1200	    12.288
  19.840	       128	    1200	    11.314
  19.860	       100	    1200	    10.000
  19.880	       139	    1200	    11.790
  19.900	       111	    1200	    10.536
  19.920	       128	    1200	    11.314
  19.940	       146	    1200	    12.083
  19.960	       133	    1200	    11.533
  19.980	       116	    1200	    10.770
  20.000	       130	    1200	    11.402
  20.020	       117	    1200	    10.817
  20.040	       141	    1200	    11.874
  20.060	       123	    1200	    11.091
  20.080	       130	    1200	    11.402
  20.100	       128	    1200	    11.314
  20.120	       120	    1200	    10.954
  20.140	       131	    1200	    11.446
  20.160	       147	    1200	    12.124
  20.180	       128	    1200	    11.314
  20.200	       125	    1200	    11.180
  20.220	       119	    1200	    10.909
  20.240	       114	    1200	    10.677
  20.260	       139	    1200	    11.790
  20.280	       134	    1200	    11.576
  20.300	       151	    1200	    12.288
  20.320	       120	    1200	    10.954
  20.340	       133	    1200	    11.533
  20.360	       110	    1200	    10.488
  20.380	       138	    1200	    11.747
  20.400	       123	    1200	    11.091
  20.420	       116	    1200	    10.770
  20.440	       126	    1200	    11.225
  20.460	       108	    1200	    10.392
  20.480	       103	    1200	    10.149
  20.500	       127	    1200	    11.269
  20.520	       139	    1200	    11.790
  20.540	       123	    1200	    11.091
  20.560	       153	    1200	    12.369
  20.580	       122	    1200	    11.045
  20.600	       120	    1200	    10.954
  20.620	       143	    1200	    11.958
  20.640	       131	    1200	    11.446
  20.660	       122	    1200	    11.045
  20.680	       128	    1200	    11.314
  20.700	       126	    1200	    11.225
  20.720	       113	    1200	    10.630
  20.740	       123	    1200	    11.091
  20.760	       136	    1200	    11.662
  20.780	       125	    1200	    11.180
  20.800	       128	    1200	    11.314
  20.820	       116	    1200	    10.770
  20.840	       128	    1200	    11.314
  20.860	       140	    1200	    11.832
  20.880	       112	    1200	    10.583
  20.900	       136	    1200	    11.662
  20.920	       140	    1200	    11.832
  20.940	       133	    1200	    11.533
  20.960	       136	    1200	    11.662
  20.980	       121	    1200	    11.000
  21.000	       129	    1200	    11.358
  21.020	       136	    1200	    11.662
  21.040	       136	    1200	    11.662
  21.060	       129	    1200	    11.358
  21.080	       134	    1200	    11.576
  21.100	       135	    1200	    11.619
  21.120	       139	    1200	    11.790
  21.140	       132	    1200	    11.489
  21.160	       137	    1200	    11.705
  21.180	       145	    1200	    12.042
  21.200	       123	    1200	    11.091
  21.220	       132	    1200	    11.489
  21.240	       118	    1200	    10.863
  21.260	       124	    1200	    11.136
  21.280	       144	    1200	    12.000
  21.300	       121	    1200	    11.000
  21.320	       121	    1200	    11.000
  21.340	       135	    1200	    11.619
  21.360	       137	    1200	    11.705
  21.380	       142	    1200	    11.916
  21.400	       141	    1200	    11.874
  21.420	       124	    1200	    11.136
  21.440	       132	    1200	    11.489
  21.460	       131	    1200	    11.446
  21.480	       125	    1200	    11.180
  21.500	       122	    1200	    11.045
  21.520	       135	    1200	    11.619
  21.540	       139	    1200	    11.790
  21.560	       128	    1200	    11.314
  21.580	       143	    1200	    11.958
  21.600	       109	    1200	    10.440
  21.620	       126	    1200	    11.225
  21.640	       127	    1200	    11.269
  21.660	       112	    1200	    10.583
  21.680	       136	    1200	    11.662
  21.700	       127	    1200	    11.269
  21.720	       142	    1200	    11.916
  21.740	       131	    1200	    11.446
  21.760	       106	    1200	    10.296
  21.780	       137	    1200	    11.705
  21.800	       122	    1200	    11.045
  21.820	       138	    1200	    11.747
  21.840	       134	    1200	    11.576
  21.860	       142	    1200	    11.916
  21.880	       127	    1200	    11.269
  21.900	       126	    1200	    11.225
  21.920	       116	    1200	    10.770
  21.940	       118	    1200	    10.863
  21.960	       144	    1200	    12.000
  21.980	       113	    1200	    10.630
  22.000	       126	    1200	    11.225
  22.020	       126	    1200	    11.225
  22.040	       125	    1200	    11.180
  22.060	       134	    1200	    11.576
  22.080	       138	    1200	    11.747
  22.100	       111	    1200	    10.536
  22.120	       114	    1200	    10.677
  22.140	       123	    1200	    11.091
  22.160	       130	    1200	    11.402
  22.180	       105	    1200	    10.247
  22.200	       146	    1200	    12.083
  22.220	       130	    1200	    11.402
  22.240	       127	    1200	    11.269
  22.260	       123	    1200	    11.091
  22.280	       124	    1200	    11.136
  22.300	       118	    1200	    10.863
  22.320	       148	    1200	    12.166
  22.340	       120	    1200	    10.954
  22.360	       123	    1200	    11.091
  22.380	       129	    1200	    11.358
  22.400	       130	    1200	    11.402
  22.420	       164	    1200	    12.806
  22.440	       135	    1200	    11.619
  22.460	       160	    1200	    12.649
  22.480	       152	    1200	    12.329
  22.500	       168	    1200	    12.961
  22.520	       180	    1200	    13.416
  22.540	       177	    1200	    13.304
  22.560	       169	    1200	    13.000
  22.580	       187	    1200	    13.675
  22.600	       190	    1200	    13.784
  22.620	       172	    1200	    13.115
  22.640	       186	    1200	    13.638
  22.660	       154	    1200	    12.410
  22.680	       153	    1200	    12.369
  22.700	       140	    1200	    11.832
  22.720	       140	    1200	    11.832
  22.740	       136	    1200	    11.662
  22.760	       149	    1200	    12.207
  22.780	       146	    1200	    12.083
  22.800	       156	    1200	    12.490
  22.820	       122	    1200	    11.045
  22.840	       132	    1200	    11.489
  22.860	       143	    1200	    11.958
  22.880	       150	    1200	    12.247
  22.900	       173	    1200	    13.153
  22.920	       166	    1200	    12.884
  22.940	       135	    1200	    11.619
  22.960	       123	    1200	    11.091
  22.980	       121	    1200	    11.000
  23.000	       119	    1200	    10.909
  23.020	       135	    1200	    11.619
  23.040	       147	    1200	    12.124
  23.060	       134	    1200	    11.576
  23.080	       146	    1200	    12.083
  23.100	       126	    1200	    11.225
  23.120	       118	    1200	    10.863
  23.140	       125	    1200	    11.180
  23.160	       116	    1200	    10.770
  23.180	       113	    1200	    10.630
  23.200	       143	    1200	    11.958
  23.220	       117	    1200	    10.817
  23.240	       121	    1200	    11.000
  23.260	       131	    1200	    11.446
  23.280	       130	    1200	    11.402
  23.300	       120	    1200	    10.954
  23.320	       123	    1200	    11.091
  23.340	       127	    1200	    11.269
  23.360	       121	    1200	    11.000
  23.380	       120	    1200	    10.954
  23.400	       115	    1200	    10.724
  23.420	       124	    1200	    11.136
  23.440	       121	    1200	    11.000
  23.460	       108	    1200	    10.392
  23.480	       124	    1200	    11.136
  23.500	       140	    1200	    11.832
  23.520	       107	    1200	    10.344
  23.540	       103	    1200	    10.149
  23.560	       115	    1200	    10.724
  23.580	       115	    1200	    10.724
  23.600	       121	    1200	    11.000
  23.620	       109	    1200	    10.440
  23.640	       135	    1200	    11.619
  23.660	       107	    1200	    10.344
  23.680	       124	    1200	    11.136
  23.700	       120	    1200	    10.954
  23.720	       114	    1200	    10.677
  23.740	       116	    1200	    10.770
  23.760	       131	    1200	    11.446
  23.780	       114	    1200	    10.677
  23.800	       105	    1200	    10.247
  23.820	       121	    1200	    11.000
  23.840	       112	    1200	    10.583
  23.860	       121	    1200	    11.000
  23.880	       140	    1200	    11.832
  23.900	       132	    1200	    11.489
  23.920	       122	    1200	    11.045
  23.940	       111	    1200	    10.536
  23.960	       117	    1200	    10.817
  23.980	       115	    1200	    10.724
  24.000	       124	    1200	    11.136
  24.020	       119	    1200	    10.909
  24.040	       108	    1200	    10.392
  24.060	       120	    1200	    10.954
