         ID: 

    Comment: 

Scan Type: Normal
Start Angle: 15 deg.
Stop Angle: 90 deg.
Num Points: 3751
Step Size: 0.02 deg.
Datafile Res: 1600 
Scan Rate: 1.000000
Scan Mode: Continuous
Wavelength: 1.540562

Diffractometer Optics:
		Detector:
			 Type: Fixed Slits
			 X2 Configuration: No
		Tube: 
			 Type: Fixed Slits
			 X2 Configuration: No


Axis[0]
	 Selected   : no 
	 Iterative  : no 
	 Start Angle: 0.000000 
	 Stop Angle : 0.000000 
	 Step Size  : 0.000000 
	 Oscillating: no 

Axis[1]
	 Selected   : no 
	 Iterative  : no 
	 Start Angle: 0.000000 
	 Stop Angle : 0.000000 
	 Step Size  : 0.000000 
	 Oscillating: no 

Axis[2]
	 Selected   : no 
	 Iterative  : no 
	 Start Angle: 0.000000 
	 Stop Angle : 0.000000 
	 Step Size  : 0.000000 
	 Oscillating: no 

Axis[3]
	 Selected   : no 
	 Iterative  : no 
	 Start Angle: 0.000000 
	 Stop Angle : 0.000000 
	 Step Size  : 0.000000 
	 Oscillating: no 

Axis[4]
	 Selected   : no 
	 Iterative  : no 
	 Start Angle: 0.000000 
	 Stop Angle : 0.000000 
	 Step Size  : 0.000000 
	 Oscillating: no 

Axis[5]
	 Selected   : no 
	 Iterative  : no 
	 Start Angle: 0.000000 
	 Stop Angle : 0.000000 
	 Step Size  : 0.000000 
	 Oscillating: no 

Axis[6]
	 Selected   : no 
	 Iterative  : no 
	 Start Angle: 0.000000 
	 Stop Angle : 0.000000 
	 Step Size  : 0.000000 
	 Oscillating: no 

Axis[7]
	 Selected   : no 
	 Iterative  : no 
	 Start Angle: 0.000000 
	 Stop Angle : 0.000000 
	 Step Size  : 0.000000 
	 Oscillating: no 

Axis[8]
	 Selected   : no 
	 Iterative  : no 
	 Start Angle: 0.000000 
	 Stop Angle : 0.000000 
	 Step Size  : 0.000000 
	 Oscillating: no 

Axis[9]
	 Selected   : no 
	 Iterative  : no 
	 Start Angle: 0.000000 
	 Stop Angle : 0.000000 
	 Step Size  : 0.000000 
	 Oscillating: no 




	   Deg.    Counts 	   Time 	    ESD   

Range 0
  15.000	       136	    1200	    11.662
  15.020	       111	    1200	    10.536
  15.040	       117	    1200	    10.817
  15.060	       105	    1200	    10.247
  15.080	       114	    1200	    10.677
  15.100	       102	    1200	    10.100
  15.120	       101	    1200	    10.050
  15.140	       108	    1200	    10.392
  15.160	       125	    1200	    11.180
  15.180	       106	    1200	    10.296
  15.200	        88	    1200	     9.381
  15.220	       109	    1200	    10.440
  15.240	       111	    1200	    10.536
  15.260	       112	    1200	    10.583
  15.280	        93	    1200	     9.644
  15.300	       137	    1200	    11.705
  15.320	       107	    1200	    10.344
  15.340	       125	    1200	    11.180
  15.360	       123	    1200	    11.091
  15.380	       125	    1200	    11.180
  15.400	        89	    1200	     9.434
  15.420	       131	    1200	    11.446
  15.440	       113	    1200	    10.630
  15.460	       102	    1200	    10.100
  15.480	       110	    1200	    10.488
  15.500	       125	    1200	    11.180
  15.520	        94	    1200	     9.695
  15.540	        95	    1200	     9.747
  15.560	       133	    1200	    11.533
  15.580	       116	    1200	    10.770
  15.600	       125	    1200	    11.180
  15.620	       117	    1200	    10.817
  15.640	       114	    1200	    10.677
  15.660	        95	    1200	     9.747
  15.680	       108	    1200	    10.392
  15.700	       124	    1200	    11.136
  15.720	       120	    1200	    10.954
  15.740	       127	    1200	    11.269
  15.760	       111	    1200	    10.536
  15.780	       104	    1200	    10.198
  15.800	       113	    1200	    10.630
  15.820	       120	    1200	    10.954
  15.840	       119	    1200	    10.909
  15.860	       122	    1200	    11.045
  15.880	       133	    1200	    11.533
  15.900	       109	    1200	    10.440
  15.920	       122	    1200	    11.045
  15.940	       124	    1200	    11.136
  15.960	       105	    1200	    10.247
  15.980	       115	    1200	    10.724
  16.000	       117	    1200	    10.817
  16.020	       117	    1200	    10.817
  16.040	       111	    1200	    10.536
  16.060	        93	    1200	     9.644
  16.080	       108	    1200	    10.392
  16.100	       114	    1200	    10.677
  16.120	       109	    1200	    10.440
  16.140	       132	    1200	    11.489
  16.160	       105	    1200	    10.247
  16.180	       123	    1200	    11.091
  16.200	       108	    1200	    10.392
  16.220	       125	    1200	    11.180
  16.240	       111	    1200	    10.536
  16.260	       116	    1200	    10.770
  16.280	       127	    1200	    11.269
  16.300	       121	    1200	    11.000
  16.320	       104	    1200	    10.198
  16.340	       100	    1200	    10.000
  16.360	       123	    1200	    11.091
  16.380	       113	    1200	    10.630
  16.400	       103	    1200	    10.149
  16.420	       104	    1200	    10.198
  16.440	       112	    1200	    10.583
  16.460	       112	    1200	    10.583
  16.480	       116	    1200	    10.770
  16.500	       123	    1200	    11.091
  16.520	       116	    1200	    10.770
  16.540	       118	    1200	    10.863
  16.560	        93	    1200	     9.644
  16.580	       107	    1200	    10.344
  16.600	       126	    1200	    11.225
  16.620	       137	    1200	    11.705
  16.640	       116	    1200	    10.770
  16.660	       111	    1200	    10.536
  16.680	       127	    1200	    11.269
  16.700	       104	    1200	    10.198
  16.720	       101	    1200	    10.050
  16.740	        99	    1200	     9.950
  16.760	       115	    1200	    10.724
  16.780	       121	    1200	    11.000
  16.800	        97	    1200	     9.849
  16.820	       114	    1200	    10.677
  16.840	       114	    1200	    10.677
  16.860	       144	    1200	    12.000
  16.880	       105	    1200	    10.247
  16.900	       133	    1200	    11.533
  16.920	       106	    1200	    10.296
  16.940	       131	    1200	    11.446
  16.960	       107	    1200	    10.344
  16.980	       111	    1200	    10.536
  17.000	       103	    1200	    10.149
  17.020	       115	    1200	    10.724
  17.040	       116	    1200	    10.770
  17.060	       111	    1200	    10.536
  17.080	       120	    1200	    10.954
  17.100	       101	    1200	    10.050
  17.120	       108	    1200	    10.392
  17.140	       103	    1200	    10.149
  17.160	       101	    1200	    10.050
  17.180	        97	    1200	     9.849
  17.200	       124	    1200	    11.136
  17.220	       102	    1200	    10.100
  17.240	        97	    1200	     9.849
  17.260	       107	    1200	    10.344
  17.280	        99	    1200	     9.950
  17.300	        99	    1200	     9.950
  17.320	       111	    1200	    10.536
  17.340	       101	    1200	    10.050
  17.360	       111	    1200	    10.536
  17.380	       125	    1200	    11.180
  17.400	       114	    1200	    10.677
  17.420	       115	    1200	    10.724
  17.440	       112	    1200	    10.583
  17.460	        94	    1200	     9.695
  17.480	       130	    1200	    11.402
  17.500	       138	    1200	    11.747
  17.520	       117	    1200	    10.817
  17.540	       106	    1200	    10.296
  17.560	       110	    1200	    10.488
  17.580	       106	    1200	    10.296
  17.600	       113	    1200	    10.630
  17.620	       114	    1200	    10.677
  17.640	       135	    1200	    11.619
  17.660	       131	    1200	    11.446
  17.680	        99	    1200	     9.950
  17.700	       105	    1200	    10.247
  17.720	       116	    1200	    10.770
  17.740	       122	    1200	    11.045
  17.760	       122	    1200	    11.045
  17.780	        98	    1200	     9.899
  17.800	       121	    1200	    11.000
  17.820	       118	    1200	    10.863
  17.840	        99	    1200	     9.950
  17.860	       121	    1200	    11.000
  17.880	       119	    1200	    10.909
  17.900	       101	    1200	    10.050
  17.920	       113	    1200	    10.630
  17.940	       126	    1200	    11.225
  17.960	       117	    1200	    10.817
  17.980	       119	    1200	    10.909
  18.000	       134	    1200	    11.576
  18.020	       125	    1200	    11.180
  18.040	       128	    1200	    11.314
  18.060	       118	    1200	    10.863
  18.080	        97	    1200	     9.849
  18.100	        88	    1200	     9.381
  18.120	       102	    1200	    10.100
  18.140	       117	    1200	    10.817
  18.160	       128	    1200	    11.314
  18.180	       104	    1200	    10.198
  18.200	       136	    1200	    11.662
  18.220	       114	    1200	    10.677
  18.240	       120	    1200	    10.954
  18.260	       106	    1200	    10.296
  18.280	       106	    1200	    10.296
  18.300	       138	    1200	    11.747
  18.320	       117	    1200	    10.817
  18.340	        99	    1200	     9.950
  18.360	       105	    1200	    10.247
  18.380	       105	    1200	    10.247
  18.400	       123	    1200	    11.091
  18.420	       116	    1200	    10.770
  18.440	       113	    1200	    10.630
  18.460	       119	    1200	    10.909
  18.480	       112	    1200	    10.583
  18.500	        96	    1200	     9.798
  18.520	       125	    1200	    11.180
  18.540	        99	    1200	     9.950
  18.560	       122	    1200	    11.045
  18.580	       111	    1200	    10.536
  18.600	       128	    1200	    11.314
  18.620	       107	    1200	    10.344
  18.640	       118	    1200	    10.863
  18.660	       107	    1200	    10.344
  18.680	       124	    1200	    11.136
  18.700	       108	    1200	    10.392
  18.720	       105	    1200	    10.247
  18.740	        79	    1200	     8.888
  18.760	       100	    1200	    10.000
  18.780	       116	    1200	    10.770
  18.800	       107	    1200	    10.344
  18.820	       122	    1200	    11.045
  18.840	       110	    1200	    10.488
  18.860	       100	    1200	    10.000
  18.880	       115	    1200	    10.724
  18.900	       128	    1200	    11.314
  18.920	       110	    1200	    10.488
  18.940	       111	    1200	    10.536
  18.960	       108	    1200	    10.392
  18.980	       123	    1200	    11.091
  19.000	       118	    1200	    10.863
  19.020	       111	    1200	    10.536
  19.040	       111	    1200	    10.536
  19.060	       111	    1200	    10.536
  19.080	       123	    1200	    11.091
  19.100	       127	    1200	    11.269
  19.120	       116	    1200	    10.770
  19.140	       110	    1200	    10.488
  19.160	       117	    1200	    10.817
  19.180	       126	    1200	    11.225
  19.200	       112	    1200	    10.583
  19.220	       115	    1200	    10.724
  19.240	       110	    1200	    10.488
  19.260	        99	    1200	     9.950
  19.280	       123	    1200	    11.091
  19.300	       106	    1200	    10.296
  19.320	       118	    1200	    10.863
  19.340	       109	    1200	    10.440
  19.360	       115	    1200	    10.724
  19.380	       106	    1200	    10.296
  19.400	       121	    1200	    11.000
  19.420	       108	    1200	    10.392
  19.440	       117	    1200	    10.817
  19.460	       120	    1200	    10.954
  19.480	       113	    1200	    10.630
  19.500	       109	    1200	    10.440
  19.520	       102	    1200	    10.100
  19.540	        93	    1200	     9.644
  19.560	       115	    1200	    10.724
  19.580	       106	    1200	    10.296
  19.600	       107	    1200	    10.344
  19.620	        92	    1200	     9.592
  19.640	       115	    1200	    10.724
  19.660	       124	    1200	    11.136
  19.680	       115	    1200	    10.724
  19.700	       110	    1200	    10.488
  19.720	       111	    1200	    10.536
  19.740	       112	    1200	    10.583
  19.760	        98	    1200	     9.899
  19.780	       123	    1200	    11.091
  19.800	       117	    1200	    10.817
  19.820	        98	    1200	     9.899
  19.840	       102	    1200	    10.100
  19.860	       106	    1200	    10.296
  19.880	       104	    1200	    10.198
  19.900	       105	    1200	    10.247
  19.920	       106	    1200	    10.296
  19.940	       129	    1200	    11.358
  19.960	       117	    1200	    10.817
  19.980	        94	    1200	     9.695
  20.000	       107	    1200	    10.344
  20.020	       107	    1200	    10.344
  20.040	       121	    1200	    11.000
  20.060	       101	    1200	    10.050
  20.080	       126	    1200	    11.225
  20.100	       118	    1200	    10.863
  20.120	       115	    1200	    10.724
  20.140	       101	    1200	    10.050
  20.160	        95	    1200	     9.747
  20.180	       122	    1200	    11.045
  20.200	       118	    1200	    10.863
  20.220	       111	    1200	    10.536
  20.240	       103	    1200	    10.149
  20.260	       117	    1200	    10.817
  20.280	       123	    1200	    11.091
  20.300	       113	    1200	    10.630
  20.320	       112	    1200	    10.583
  20.340	        92	    1200	     9.592
  20.360	        84	    1200	     9.165
  20.380	       104	    1200	    10.198
  20.400	       102	    1200	    10.100
  20.420	       104	    1200	    10.198
  20.440	       106	    1200	    10.296
  20.460	       111	    1200	    10.536
  20.480	       128	    1200	    11.314
  20.500	       115	    1200	    10.724
  20.520	       106	    1200	    10.296
  20.540	       116	    1200	    10.770
  20.560	        96	    1200	     9.798
  20.580	       111	    1200	    10.536
  20.600	       116	    1200	    10.770
  20.620	        82	    1200	     9.055
  20.640	       115	    1200	    10.724
  20.660	       102	    1200	    10.100
  20.680	       120	    1200	    10.954
  20.700	       111	    1200	    10.536
  20.720	       115	    1200	    10.724
  20.740	       111	    1200	    10.536
  20.760	       123	    1200	    11.091
  20.780	       102	    1200	    10.100
  20.800	       113	    1200	    10.630
  20.820	       103	    1200	    10.149
  20.840	       122	    1200	    11.045
  20.860	       106	    1200	    10.296
  20.880	       103	    1200	    10.149
  20.900	       118	    1200	    10.863
  20.920	       119	    1200	    10.909
  20.940	       107	    1200	    10.344
  20.960	       101	    1200	    10.050
  20.980	       117	    1200	    10.817
  21.000	       110	    1200	    10.488
  21.020	       105	    1200	    10.247
  21.040	       119	    1200	    10.909
  21.060	       103	    1200	    10.149
  21.080	       124	    1200	    11.136
  21.100	        97	    1200	     9.849
  21.120	       106	    1200	    10.296
  21.140	       114	    1200	    10.677
  21.160	        88	    1200	     9.381
  21.180	        97	    1200	     9.849
  21.200	       135	    1200	    11.619
  21.220	       106	    1200	    10.296
  21.240	       109	    1200	    10.440
  21.260	       126	    1200	    11.225
  21.280	       130	    1200	    11.402
  21.300	       113	    1200	    10.630
  21.320	       127	    1200	    11.269
  21.340	       106	    1200	    10.296
  21.360	       100	    1200	    10.000
  21.380	       112	    1200	    10.583
  21.400	        90	    1200	     9.487
  21.420	       110	    1200	    10.488
  21.440	       113	    1200	    10.630
  21.460	       118	    1200	    10.863
  21.480	       102	    1200	    10.100
  21.500	       114	    1200	    10.677
  21.520	        99	    1200	     9.950
  21.540	       101	    1200	    10.050
  21.560	        97	    1200	     9.849
  21.580	        90	    1200	     9.487
  21.600	       122	    1200	    11.045
  21.620	       124	    1200	    11.136
  21.640	       105	    1200	    10.247
  21.660	        93	    1200	     9.644
  21.680	       103	    1200	    10.149
  21.700	        91	    1200	     9.539
  21.720	        85	    1200	     9.220
  21.740	       118	    1200	    10.863
  21.760	       105	    1200	    10.247
  21.780	       108	    1200	    10.392
  21.800	        92	    1200	     9.592
  21.820	       120	    1200	    10.954
  21.840	       135	    1200	    11.619
  21.860	       107	    1200	    10.344
  21.880	       121	    1200	    11.000
  21.900	       121	    1200	    11.000
  21.920	       113	    1200	    10.630
  21.940	        94	    1200	     9.695
  21.960	        93	    1200	     9.644
  21.980	       109	    1200	    10.440
  22.000	       106	    1200	    10.296
  22.020	        97	    1200	     9.849
  22.040	       112	    1200	    10.583
  22.060	        91	    1200	     9.539
  22.080	       107	    1200	    10.344
  22.100	       104	    1200	    10.198
  22.120	       110	    1200	    10.488
  22.140	        93	    1200	     9.644
  22.160	       115	    1200	    10.724
  22.180	       126	    1200	    11.225
  22.200	       103	    1200	    10.149
  22.220	       105	    1200	    10.247
  22.240	       111	    1200	    10.536
  22.260	       111	    1200	    10.536
  22.280	        99	    1200	     9.950
  22.300	       112	    1200	    10.583
  22.320	       126	    1200	    11.225
  22.340	       132	    1200	    11.489
  22.360	       116	    1200	    10.770
  22.380	       105	    1200	    10.247
  22.400	       119	    1200	    10.909
  22.420	       130	    1200	    11.402
  22.440	       117	    1200	    10.817
  22.460	       151	    1200	    12.288
  22.480	       156	    1200	    12.490
  22.500	       142	    1200	    11.916
  22.520	       148	    1200	    12.166
  22.540	       147	    1200	    12.124
  22.560	       155	    1200	    12.450
  22.580	       153	    1200	    12.369
  22.600	       130	    1200	    11.402
  22.620	       134	    1200	    11.576
  22.640	       126	    1200	    11.225
  22.660	       102	    1200	    10.100
  22.680	       117	    1200	    10.817
  22.700	       126	    1200	    11.225
  22.720	       101	    1200	    10.050
  22.740	        98	    1200	     9.899
  22.760	        94	    1200	     9.695
  22.780	       106	    1200	    10.296
  22.800	        98	    1200	     9.899
  22.820	        98	    1200	     9.899
  22.840	       102	    1200	    10.100
  22.860	        93	    1200	     9.644
  22.880	       104	    1200	    10.198
  22.900	        80	    1200	     8.944
  22.920	        86	    1200	     9.274
  22.940	       105	    1200	    10.247
  22.960	       110	    1200	    10.488
  22.980	       114	    1200	    10.677
  23.000	       107	    1200	    10.344
  23.020	       109	    1200	    10.440
  23.040	       121	    1200	    11.000
  23.060	        96	    1200	     9.798
  23.080	       119	    1200	    10.909
  23.100	        99	    1200	     9.950
  23.120	       101	    1200	    10.050
  23.140	       101	    1200	    10.050
  23.160	       110	    1200	    10.488
  23.180	        87	    1200	     9.327
  23.200	        74	    1200	     8.602
  23.220	        79	    1200	     8.888
  23.240	        96	    1200	     9.798
  23.260	       104	    1200	    10.198
  23.280	        92	    1200	     9.592
  23.300	       102	    1200	    10.100
  23.320	        87	    1200	     9.327
  23.340	       105	    1200	    10.247
  23.360	       113	    1200	    10.630
  23.380	       117	    1200	    10.817
  23.400	       101	    1200	    10.050
  23.420	       101	    1200	    10.050
  23.440	        95	    1200	     9.747
  23.460	        84	    1200	     9.165
  23.480	        99	    1200	     9.950
  23.500	       116	    1200	    10.770
  23.520	       120	    1200	    10.954
  23.540	       103	    1200	    10.149
  23.560	       101	    1200	    10.050
  23.580	       106	    1200	    10.296
  23.600	       103	    1200	    10.149
  23.620	        93	    1200	     9.644
  23.640	       106	    1200	    10.296
  23.660	        90	    1200	     9.487
  23.680	        88	    1200	     9.381
  23.700	        82	    1200	     9.055
  23.720	       100	    1200	    10.000
  23.740	        90	    1200	     9.487
  23.760	        91	    1200	     9.539
  23.780	        86	    1200	     9.274
  23.800	       109	    1200	    10.440
  23.820	        90	    1200	     9.487
  23.840	        91	    1200	     9.539
  23.860	       101	    1200	    10.050
  23.880	        81	    1200	     9.000
  23.900	        92	    1200	     9.592
  23.920	        93	    1200	     9.644
  23.940	       100	    1200	    10.000
  23.960	        94	    1200	     9.695
  23.980	        95	    1200	     9.747
  24.000	        95	    1200	     9.747
  24.020	       110	    1200	    10.488
  24.040	       111	    1200	    10.536
  24.060	        97	    1200	     9.849
