         ID: 

    Comment: 

Scan Type: Normal
Start Angle: 15 deg.
Stop Angle: 90 deg.
Num Points: 3751
Step Size: 0.02 deg.
Datafile Res: 1600 
Scan Rate: 1.000000
Scan Mode: Continuous
Wavelength: 1.540562

Diffractometer Optics:
		Detector:
			 Type: Fixed Slits
			 X2 Configuration: No
		Tube: 
			 Type: Fixed Slits
			 X2 Configuration: No


Axis[0]
	 Selected   : no 
	 Iterative  : no 
	 Start Angle: 0.000000 
	 Stop Angle : 0.000000 
	 Step Size  : 0.000000 
	 Oscillating: no 

Axis[1]
	 Selected   : no 
	 Iterative  : no 
	 Start Angle: 0.000000 
	 Stop Angle : 0.000000 
	 Step Size  : 0.000000 
	 Oscillating: no 

Axis[2]
	 Selected   : no 
	 Iterative  : no 
	 Start Angle: 0.000000 
	 Stop Angle : 0.000000 
	 Step Size  : 0.000000 
	 Oscillating: no 

Axis[3]
	 Selected   : no 
	 Iterative  : no 
	 Start Angle: 0.000000 
	 Stop Angle : 0.000000 
	 Step Size  : 0.000000 
	 Oscillating: no 

Axis[4]
	 Selected   : no 
	 Iterative  : no 
	 Start Angle: 0.000000 
	 Stop Angle : 0.000000 
	 Step Size  : 0.000000 
	 Oscillating: no 

Axis[5]
	 Selected   : no 
	 Iterative  : no 
	 Start Angle: 0.000000 
	 Stop Angle : 0.000000 
	 Step Size  : 0.000000 
	 Oscillating: no 

Axis[6]
	 Selected   : no 
	 Iterative  : no 
	 Start Angle: 0.000000 
	 Stop Angle : 0.000000 
	 Step Size  : 0.000000 
	 Oscillating: no 

Axis[7]
	 Selected   : no 
	 Iterative  : no 
	 Start Angle: 0.000000 
	 Stop Angle : 0.000000 
	 Step Size  : 0.000000 
	 Oscillating: no 

Axis[8]
	 Selected   : no 
	 Iterative  : no 
	 Start Angle: 0.000000 
	 Stop Angle : 0.000000 
	 Step Size  : 0.000000 
	 Oscillating: no 

Axis[9]
	 Selected   : no 
	 Iterative  : no 
	 Start Angle: 0.000000 
	 Stop Angle : 0.000000 
	 Step Size  : 0.000000 
	 Oscillating: no 




	   Deg.    Counts 	   Time 	    ESD   

Range 0
  15.000	        93	    1200	     9.644
  15.020	       112	    1200	    10.583
  15.040	       111	    1200	    10.536
  15.060	       111	    1200	    10.536
  15.080	       119	    1200	    10.909
  15.100	       113	    1200	    10.630
  15.120	       101	    1200	    10.050
  15.140	       102	    1200	    10.100
  15.160	       115	    1200	    10.724
  15.180	       114	    1200	    10.677
  15.200	        99	    1200	     9.950
  15.220	       118	    1200	    10.863
  15.240	       104	    1200	    10.198
  15.260	        82	    1200	     9.055
  15.280	       126	    1200	    11.225
  15.300	       107	    1200	    10.344
  15.320	        96	    1200	     9.798
  15.340	       130	    1200	    11.402
  15.360	       111	    1200	    10.536
  15.380	       107	    1200	    10.344
  15.400	       125	    1200	    11.180
  15.420	       101	    1200	    10.050
  15.440	       106	    1200	    10.296
  15.460	        82	    1200	     9.055
  15.480	       105	    1200	    10.247
  15.500	       109	    1200	    10.440
  15.520	        94	    1200	     9.695
  15.540	        91	    1200	     9.539
  15.560	       106	    1200	    10.296
  15.580	       130	    1200	    11.402
  15.600	       108	    1200	    10.392
  15.620	        91	    1200	     9.539
  15.640	       109	    1200	    10.440
  15.660	       110	    1200	    10.488
  15.680	       114	    1200	    10.677
  15.700	       110	    1200	    10.488
  15.720	       116	    1200	    10.770
  15.740	       109	    1200	    10.440
  15.760	       103	    1200	    10.149
  15.780	       103	    1200	    10.149
  15.800	        96	    1200	     9.798
  15.820	       110	    1200	    10.488
  15.840	       110	    1200	    10.488
  15.860	       115	    1200	    10.724
  15.880	       102	    1200	    10.100
  15.900	       104	    1200	    10.198
  15.920	        98	    1200	     9.899
  15.940	        93	    1200	     9.644
  15.960	       100	    1200	    10.000
  15.980	       121	    1200	    11.000
  16.000	       114	    1200	    10.677
  16.020	       116	    1200	    10.770
  16.040	        90	    1200	     9.487
  16.060	       118	    1200	    10.863
  16.080	       102	    1200	    10.100
  16.100	       105	    1200	    10.247
  16.120	       100	    1200	    10.000
  16.140	       106	    1200	    10.296
  16.160	        96	    1200	     9.798
  16.180	        98	    1200	     9.899
  16.200	       101	    1200	    10.050
  16.220	        98	    1200	     9.899
  16.240	       112	    1200	    10.583
  16.260	        99	    1200	     9.950
  16.280	       106	    1200	    10.296
  16.300	        97	    1200	     9.849
  16.320	        82	    1200	     9.055
  16.340	       120	    1200	    10.954
  16.360	       105	    1200	    10.247
  16.380	       111	    1200	    10.536
  16.400	        97	    1200	     9.849
  16.420	       105	    1200	    10.247
  16.440	       106	    1200	    10.296
  16.460	        96	    1200	     9.798
  16.480	        90	    1200	     9.487
  16.500	        95	    1200	     9.747
  16.520	       134	    1200	    11.576
  16.540	        98	    1200	     9.899
  16.560	        96	    1200	     9.798
  16.580	        82	    1200	     9.055
  16.600	        90	    1200	     9.487
  16.620	       102	    1200	    10.100
  16.640	       100	    1200	    10.000
  16.660	       105	    1200	    10.247
  16.680	        99	    1200	     9.950
  16.700	       108	    1200	    10.392
  16.720	       103	    1200	    10.149
  16.740	        98	    1200	     9.899
  16.760	       117	    1200	    10.817
  16.780	        83	    1200	     9.110
  16.800	       125	    1200	    11.180
  16.820	        91	    1200	     9.539
  16.840	       117	    1200	    10.817
  16.860	       102	    1200	    10.100
  16.880	       104	    1200	    10.198
  16.900	       126	    1200	    11.225
  16.920	        81	    1200	     9.000
  16.940	        92	    1200	     9.592
  16.960	       110	    1200	    10.488
  16.980	       118	    1200	    10.863
  17.000	        91	    1200	     9.539
  17.020	        95	    1200	     9.747
  17.040	       114	    1200	    10.677
  17.060	       115	    1200	    10.724
  17.080	        96	    1200	     9.798
  17.100	       111	    1200	    10.536
  17.120	       104	    1200	    10.198
  17.140	       109	    1200	    10.440
  17.160	        95	    1200	     9.747
  17.180	        92	    1200	     9.592
  17.200	        99	    1200	     9.950
  17.220	        83	    1200	     9.110
  17.240	       100	    1200	    10.000
  17.260	        99	    1200	     9.950
  17.280	        84	    1200	     9.165
  17.300	       106	    1200	    10.296
  17.320	        85	    1200	     9.220
  17.340	        91	    1200	     9.539
  17.360	       106	    1200	    10.296
  17.380	       106	    1200	    10.296
  17.400	        94	    1200	     9.695
  17.420	        88	    1200	     9.381
  17.440	        75	    1200	     8.660
  17.460	        99	    1200	     9.950
  17.480	       114	    1200	    10.677
  17.500	       103	    1200	    10.149
  17.520	        84	    1200	     9.165
  17.540	        96	    1200	     9.798
  17.560	       100	    1200	    10.000
  17.580	        94	    1200	     9.695
  17.600	        74	    1200	     8.602
  17.620	       102	    1200	    10.100
  17.640	       100	    1200	    10.000
  17.660	       109	    1200	    10.440
  17.680	       109	    1200	    10.440
  17.700	        90	    1200	     9.487
  17.720	       119	    1200	    10.909
  17.740	        98	    1200	     9.899
  17.760	        83	    1200	     9.110
  17.780	        99	    1200	     9.950
  17.800	        92	    1200	     9.592
  17.820	       101	    1200	    10.050
  17.840	        90	    1200	     9.487
  17.860	        98	    1200	     9.899
  17.880	        94	    1200	     9.695
  17.900	       106	    1200	    10.296
  17.920	       115	    1200	    10.724
  17.940	        83	    1200	     9.110
  17.960	        79	    1200	     8.888
  17.980	       101	    1200	    10.050
  18.000	       103	    1200	    10.149
  18.020	        93	    1200	     9.644
  18.040	        90	    1200	     9.487
  18.060	        93	    1200	     9.644
  18.080	       100	    1200	    10.000
  18.100	       113	    1200	    10.630
  18.120	        98	    1200	     9.899
  18.140	       108	    1200	    10.392
  18.160	       106	    1200	    10.296
  18.180	       118	    1200	    10.863
  18.200	        87	    1200	     9.327
  18.220	       101	    1200	    10.050
  18.240	        89	    1200	     9.434
  18.260	       113	    1200	    10.630
  18.280	        90	    1200	     9.487
  18.300	       103	    1200	    10.149
  18.320	        89	    1200	     9.434
  18.340	        88	    1200	     9.381
  18.360	        96	    1200	     9.798
  18.380	        91	    1200	     9.539
  18.400	        99	    1200	     9.950
  18.420	        84	    1200	     9.165
  18.440	       103	    1200	    10.149
  18.460	       110	    1200	    10.488
  18.480	       112	    1200	    10.583
  18.500	       103	    1200	    10.149
  18.520	        91	    1200	     9.539
  18.540	       101	    1200	    10.050
  18.560	        90	    1200	     9.487
  18.580	        99	    1200	     9.950
  18.600	        84	    1200	     9.165
  18.620	        81	    1200	     9.000
  18.640	       102	    1200	    10.100
  18.660	       102	    1200	    10.100
  18.680	        97	    1200	     9.849
  18.700	        88	    1200	     9.381
  18.720	       103	    1200	    10.149
  18.740	       112	    1200	    10.583
  18.760	        98	    1200	     9.899
  18.780	        96	    1200	     9.798
  18.800	        87	    1200	     9.327
  18.820	        85	    1200	     9.220
  18.840	        95	    1200	     9.747
  18.860	        96	    1200	     9.798
  18.880	        88	    1200	     9.381
  18.900	        93	    1200	     9.644
  18.920	       112	    1200	    10.583
  18.940	        83	    1200	     9.110
  18.960	       104	    1200	    10.198
  18.980	        98	    1200	     9.899
  19.000	        76	    1200	     8.718
  19.020	        92	    1200	     9.592
  19.040	        78	    1200	     8.832
  19.060	        87	    1200	     9.327
  19.080	        96	    1200	     9.798
  19.100	        99	    1200	     9.950
  19.120	        84	    1200	     9.165
  19.140	        99	    1200	     9.950
  19.160	        91	    1200	     9.539
  19.180	        97	    1200	     9.849
  19.200	        59	    1200	     7.681
  19.220	        99	    1200	     9.950
  19.240	       104	    1200	    10.198
  19.260	        96	    1200	     9.798
  19.280	        94	    1200	     9.695
  19.300	        90	    1200	     9.487
  19.320	        71	    1200	     8.426
  19.340	       120	    1200	    10.954
  19.360	        92	    1200	     9.592
  19.380	        97	    1200	     9.849
  19.400	        88	    1200	     9.381
  19.420	        95	    1200	     9.747
  19.440	        93	    1200	     9.644
  19.460	        78	    1200	     8.832
  19.480	        90	    1200	     9.487
  19.500	        98	    1200	     9.899
  19.520	        91	    1200	     9.539
  19.540	       104	    1200	    10.198
  19.560	        76	    1200	     8.718
  19.580	        98	    1200	     9.899
  19.600	        75	    1200	     8.660
  19.620	        96	    1200	     9.798
  19.640	       108	    1200	    10.392
  19.660	       101	    1200	    10.050
  19.680	        90	    1200	     9.487
  19.700	       108	    1200	    10.392
  19.720	        94	    1200	     9.695
  19.740	        93	    1200	     9.644
  19.760	        91	    1200	     9.539
  19.780	        79	    1200	     8.888
  19.800	        97	    1200	     9.849
  19.820	        94	    1200	     9.695
  19.840	        82	    1200	     9.055
  19.860	        97	    1200	     9.849
  19.880	        91	    1200	     9.539
  19.900	        97	    1200	     9.849
  19.920	       106	    1200	    10.296
  19.940	       122	    1200	    11.045
  19.960	        92	    1200	     9.592
  19.980	        91	    1200	     9.539
  20.000	        89	    1200	     9.434
  20.020	       102	    1200	    10.100
  20.040	       100	    1200	    10.000
  20.060	        90	    1200	     9.487
  20.080	        81	    1200	     9.000
  20.100	       102	    1200	    10.100
  20.120	        87	    1200	     9.327
  20.140	        85	    1200	     9.220
  20.160	       109	    1200	    10.440
  20.180	        98	    1200	     9.899
  20.200	        84	    1200	     9.165
  20.220	        87	    1200	     9.327
  20.240	        96	    1200	     9.798
  20.260	        99	    1200	     9.950
  20.280	        89	    1200	     9.434
  20.300	        91	    1200	     9.539
  20.320	        95	    1200	     9.747
  20.340	        97	    1200	     9.849
  20.360	        82	    1200	     9.055
  20.380	        82	    1200	     9.055
  20.400	        83	    1200	     9.110
  20.420	        84	    1200	     9.165
  20.440	       108	    1200	    10.392
  20.460	        99	    1200	     9.950
  20.480	        90	    1200	     9.487
  20.500	        93	    1200	     9.644
  20.520	        82	    1200	     9.055
  20.540	        74	    1200	     8.602
  20.560	        93	    1200	     9.644
  20.580	        82	    1200	     9.055
  20.600	       100	    1200	    10.000
  20.620	       103	    1200	    10.149
  20.640	       100	    1200	    10.000
  20.660	        91	    1200	     9.539
  20.680	        93	    1200	     9.644
  20.700	       109	    1200	    10.440
  20.720	        96	    1200	     9.798
  20.740	        88	    1200	     9.381
  20.760	        92	    1200	     9.592
  20.780	        91	    1200	     9.539
  20.800	       101	    1200	    10.050
  20.820	        89	    1200	     9.434
  20.840	       104	    1200	    10.198
  20.860	        95	    1200	     9.747
  20.880	        91	    1200	     9.539
  20.900	        99	    1200	     9.950
  20.920	        80	    1200	     8.944
  20.940	        95	    1200	     9.747
  20.960	        83	    1200	     9.110
  20.980	        87	    1200	     9.327
  21.000	        70	    1200	     8.367
  21.020	        83	    1200	     9.110
  21.040	        92	    1200	     9.592
  21.060	        75	    1200	     8.660
  21.080	        98	    1200	     9.899
  21.100	       101	    1200	    10.050
  21.120	        78	    1200	     8.832
  21.140	        78	    1200	     8.832
  21.160	        89	    1200	     9.434
  21.180	        84	    1200	     9.165
  21.200	        76	    1200	     8.718
  21.220	        86	    1200	     9.274
  21.240	       100	    1200	    10.000
  21.260	       100	    1200	    10.000
  21.280	        99	    1200	     9.950
  21.300	        90	    1200	     9.487
  21.320	        97	    1200	     9.849
  21.340	        88	    1200	     9.381
  21.360	       110	    1200	    10.488
  21.380	        77	    1200	     8.775
  21.400	        97	    1200	     9.849
  21.420	       105	    1200	    10.247
  21.440	        88	    1200	     9.381
  21.460	        94	    1200	     9.695
  21.480	        73	    1200	     8.544
  21.500	        96	    1200	     9.798
  21.520	        98	    1200	     9.899
  21.540	        85	    1200	     9.220
  21.560	       100	    1200	    10.000
  21.580	        96	    1200	     9.798
  21.600	        84	    1200	     9.165
  21.620	        94	    1200	     9.695
  21.640	        84	    1200	     9.165
  21.660	       104	    1200	    10.198
  21.680	        90	    1200	     9.487
  21.700	        89	    1200	     9.434
  21.720	        76	    1200	     8.718
  21.740	        79	    1200	     8.888
  21.760	        91	    1200	     9.539
  21.780	       100	    1200	    10.000
  21.800	        95	    1200	     9.747
  21.820	        77	    1200	     8.775
  21.840	        90	    1200	     9.487
  21.860	        93	    1200	     9.644
  21.880	        98	    1200	     9.899
  21.900	        82	    1200	     9.055
  21.920	        87	    1200	     9.327
  21.940	       102	    1200	    10.100
  21.960	        99	    1200	     9.950
  21.980	        90	    1200	     9.487
  22.000	        80	    1200	     8.944
  22.020	        89	    1200	     9.434
  22.040	        76	    1200	     8.718
  22.060	        93	    1200	     9.644
  22.080	        88	    1200	     9.381
  22.100	        89	    1200	     9.434
  22.120	        84	    1200	     9.165
  22.140	        81	    1200	     9.000
  22.160	        83	    1200	     9.110
  22.180	        91	    1200	     9.539
  22.200	        85	    1200	     9.220
  22.220	        83	    1200	     9.110
  22.240	        91	    1200	     9.539
  22.260	        94	    1200	     9.695
  22.280	        85	    1200	     9.220
  22.300	        78	    1200	     8.832
  22.320	        84	    1200	     9.165
  22.340	        77	    1200	     8.775
  22.360	        97	    1200	     9.849
  22.380	        85	    1200	     9.220
  22.400	        84	    1200	     9.165
  22.420	        91	    1200	     9.539
  22.440	        94	    1200	     9.695
  22.460	       103	    1200	    10.149
  22.480	       111	    1200	    10.536
  22.500	       109	    1200	    10.440
  22.520	       106	    1200	    10.296
  22.540	       100	    1200	    10.000
  22.560	       101	    1200	    10.050
  22.580	       121	    1200	    11.000
  22.600	       147	    1200	    12.124
  22.620	       143	    1200	    11.958
  22.640	       141	    1200	    11.874
  22.660	       135	    1200	    11.619
  22.680	       151	    1200	    12.288
  22.700	       135	    1200	    11.619
  22.720	       123	    1200	    11.091
  22.740	       136	    1200	    11.662
  22.760	       119	    1200	    10.909
  22.780	       123	    1200	    11.091
  22.800	       116	    1200	    10.770
  22.820	       115	    1200	    10.724
  22.840	       108	    1200	    10.392
  22.860	        91	    1200	     9.539
  22.880	        98	    1200	     9.899
  22.900	        88	    1200	     9.381
  22.920	        81	    1200	     9.000
  22.940	        90	    1200	     9.487
  22.960	        80	    1200	     8.944
  22.980	        97	    1200	     9.849
  23.000	        81	    1200	     9.000
  23.020	        85	    1200	     9.220
  23.040	        78	    1200	     8.832
  23.060	        79	    1200	     8.888
  23.080	        73	    1200	     8.544
  23.100	        74	    1200	     8.602
  23.120	        85	    1200	     9.220
  23.140	        77	    1200	     8.775
  23.160	        88	    1200	     9.381
  23.180	        81	    1200	     9.000
  23.200	        76	    1200	     8.718
  23.220	        80	    1200	     8.944
  23.240	        78	    1200	     8.832
  23.260	        72	    1200	     8.485
  23.280	        85	    1200	     9.220
  23.300	        73	    1200	     8.544
  23.320	        90	    1200	     9.487
  23.340	       101	    1200	    10.050
  23.360	        78	    1200	     8.832
  23.380	        82	    1200	     9.055
  23.400	        74	    1200	     8.602
  23.420	        78	    1200	     8.832
  23.440	        69	    1200	     8.307
  23.460	        91	    1200	     9.539
  23.480	        99	    1200	     9.950
  23.500	        77	    1200	     8.775
  23.520	        72	    1200	     8.485
  23.540	        90	    1200	     9.487
  23.560	        94	    1200	     9.695
  23.580	        60	    1200	     7.746
  23.600	       110	    1200	    10.488
  23.620	        78	    1200	     8.832
  23.640	        83	    1200	     9.110
  23.660	        76	    1200	     8.718
  23.680	        61	    1200	     7.810
  23.700	        76	    1200	     8.718
  23.720	        78	    1200	     8.832
  23.740	        98	    1200	     9.899
  23.760	        82	    1200	     9.055
  23.780	        89	    1200	     9.434
  23.800	        74	    1200	     8.602
  23.820	        85	    1200	     9.220
  23.840	        71	    1200	     8.426
  23.860	        84	    1200	     9.165
  23.880	        68	    1200	     8.246
  23.900	        77	    1200	     8.775
  23.920	        79	    1200	     8.888
  23.940	        78	    1200	     8.832
  23.960	        92	    1200	     9.592
  23.980	        66	    1200	     8.124
  24.000	        66	    1200	     8.124
  24.020	        82	    1200	     9.055
  24.040	        81	    1200	     9.000
  24.060	        66	    1200	     8.124
