         ID: 

    Comment: 

Scan Type: Normal
Start Angle: 15 deg.
Stop Angle: 90 deg.
Num Points: 3751
Step Size: 0.02 deg.
Datafile Res: 1600 
Scan Rate: 1.000000
Scan Mode: Continuous
Wavelength: 1.540562

Diffractometer Optics:
		Detector:
			 Type: Fixed Slits
			 X2 Configuration: No
		Tube: 
			 Type: Fixed Slits
			 X2 Configuration: No


Axis[0]
	 Selected   : no 
	 Iterative  : no 
	 Start Angle: 0.000000 
	 Stop Angle : 0.000000 
	 Step Size  : 0.000000 
	 Oscillating: no 

Axis[1]
	 Selected   : no 
	 Iterative  : no 
	 Start Angle: 0.000000 
	 Stop Angle : 0.000000 
	 Step Size  : 0.000000 
	 Oscillating: no 

Axis[2]
	 Selected   : no 
	 Iterative  : no 
	 Start Angle: 0.000000 
	 Stop Angle : 0.000000 
	 Step Size  : 0.000000 
	 Oscillating: no 

Axis[3]
	 Selected   : no 
	 Iterative  : no 
	 Start Angle: 0.000000 
	 Stop Angle : 0.000000 
	 Step Size  : 0.000000 
	 Oscillating: no 

Axis[4]
	 Selected   : no 
	 Iterative  : no 
	 Start Angle: 0.000000 
	 Stop Angle : 0.000000 
	 Step Size  : 0.000000 
	 Oscillating: no 

Axis[5]
	 Selected   : no 
	 Iterative  : no 
	 Start Angle: 0.000000 
	 Stop Angle : 0.000000 
	 Step Size  : 0.000000 
	 Oscillating: no 

Axis[6]
	 Selected   : no 
	 Iterative  : no 
	 Start Angle: 0.000000 
	 Stop Angle : 0.000000 
	 Step Size  : 0.000000 
	 Oscillating: no 

Axis[7]
	 Selected   : no 
	 Iterative  : no 
	 Start Angle: 0.000000 
	 Stop Angle : 0.000000 
	 Step Size  : 0.000000 
	 Oscillating: no 

Axis[8]
	 Selected   : no 
	 Iterative  : no 
	 Start Angle: 0.000000 
	 Stop Angle : 0.000000 
	 Step Size  : 0.000000 
	 Oscillating: no 

Axis[9]
	 Selected   : no 
	 Iterative  : no 
	 Start Angle: 0.000000 
	 Stop Angle : 0.000000 
	 Step Size  : 0.000000 
	 Oscillating: no 




	   Deg.    Counts 	   Time 	    ESD   

Range 0
  15.000	       116	    1200	    10.770
  15.020	       110	    1200	    10.488
  15.040	       111	    1200	    10.536
  15.060	        98	    1200	     9.899
  15.080	       124	    1200	    11.136
  15.100	       128	    1200	    11.314
  15.120	       105	    1200	    10.247
  15.140	       104	    1200	    10.198
  15.160	       105	    1200	    10.247
  15.180	       111	    1200	    10.536
  15.200	       114	    1200	    10.677
  15.220	       109	    1200	    10.440
  15.240	       125	    1200	    11.180
  15.260	        84	    1200	     9.165
  15.280	       108	    1200	    10.392
  15.300	       100	    1200	    10.000
  15.320	       111	    1200	    10.536
  15.340	       109	    1200	    10.440
  15.360	        99	    1200	     9.950
  15.380	       123	    1200	    11.091
  15.400	       105	    1200	    10.247
  15.420	       116	    1200	    10.770
  15.440	       112	    1200	    10.583
  15.460	       108	    1200	    10.392
  15.480	       107	    1200	    10.344
  15.500	       102	    1200	    10.100
  15.520	        94	    1200	     9.695
  15.540	       116	    1200	    10.770
  15.560	       112	    1200	    10.583
  15.580	       109	    1200	    10.440
  15.600	       109	    1200	    10.440
  15.620	       102	    1200	    10.100
  15.640	       111	    1200	    10.536
  15.660	       116	    1200	    10.770
  15.680	       116	    1200	    10.770
  15.700	       125	    1200	    11.180
  15.720	        94	    1200	     9.695
  15.740	       117	    1200	    10.817
  15.760	       124	    1200	    11.136
  15.780	       113	    1200	    10.630
  15.800	       101	    1200	    10.050
  15.820	       115	    1200	    10.724
  15.840	       109	    1200	    10.440
  15.860	        99	    1200	     9.950
  15.880	       112	    1200	    10.583
  15.900	       124	    1200	    11.136
  15.920	       115	    1200	    10.724
  15.940	       107	    1200	    10.344
  15.960	       120	    1200	    10.954
  15.980	       117	    1200	    10.817
  16.000	       104	    1200	    10.198
  16.020	       115	    1200	    10.724
  16.040	       101	    1200	    10.050
  16.060	        93	    1200	     9.644
  16.080	       106	    1200	    10.296
  16.100	       100	    1200	    10.000
  16.120	       109	    1200	    10.440
  16.140	       120	    1200	    10.954
  16.160	       115	    1200	    10.724
  16.180	       105	    1200	    10.247
  16.200	       105	    1200	    10.247
  16.220	       111	    1200	    10.536
  16.240	       136	    1200	    11.662
  16.260	       101	    1200	    10.050
  16.280	       104	    1200	    10.198
  16.300	       110	    1200	    10.488
  16.320	       116	    1200	    10.770
  16.340	       110	    1200	    10.488
  16.360	        98	    1200	     9.899
  16.380	       106	    1200	    10.296
  16.400	       112	    1200	    10.583
  16.420	       115	    1200	    10.724
  16.440	       117	    1200	    10.817
  16.460	        98	    1200	     9.899
  16.480	       105	    1200	    10.247
  16.500	       108	    1200	    10.392
  16.520	        86	    1200	     9.274
  16.540	        96	    1200	     9.798
  16.560	        99	    1200	     9.950
  16.580	       117	    1200	    10.817
  16.600	        96	    1200	     9.798
  16.620	       102	    1200	    10.100
  16.640	        91	    1200	     9.539
  16.660	       110	    1200	    10.488
  16.680	       107	    1200	    10.344
  16.700	       149	    1200	    12.207
  16.720	       107	    1200	    10.344
  16.740	        92	    1200	     9.592
  16.760	       103	    1200	    10.149
  16.780	       120	    1200	    10.954
  16.800	       104	    1200	    10.198
  16.820	       122	    1200	    11.045
  16.840	        99	    1200	     9.950
  16.860	       110	    1200	    10.488
  16.880	        98	    1200	     9.899
  16.900	       122	    1200	    11.045
  16.920	       115	    1200	    10.724
  16.940	       100	    1200	    10.000
  16.960	       109	    1200	    10.440
  16.980	        99	    1200	     9.950
  17.000	       104	    1200	    10.198
  17.020	       107	    1200	    10.344
  17.040	        99	    1200	     9.950
  17.060	       131	    1200	    11.446
  17.080	       102	    1200	    10.100
  17.100	        94	    1200	     9.695
  17.120	       107	    1200	    10.344
  17.140	       113	    1200	    10.630
  17.160	       112	    1200	    10.583
  17.180	       100	    1200	    10.000
  17.200	       124	    1200	    11.136
  17.220	       119	    1200	    10.909
  17.240	       101	    1200	    10.050
  17.260	       111	    1200	    10.536
  17.280	       107	    1200	    10.344
  17.300	       123	    1200	    11.091
  17.320	       118	    1200	    10.863
  17.340	       116	    1200	    10.770
  17.360	       117	    1200	    10.817
  17.380	       101	    1200	    10.050
  17.400	       120	    1200	    10.954
  17.420	       123	    1200	    11.091
  17.440	       102	    1200	    10.100
  17.460	        97	    1200	     9.849
  17.480	       124	    1200	    11.136
  17.500	        91	    1200	     9.539
  17.520	       112	    1200	    10.583
  17.540	       105	    1200	    10.247
  17.560	       106	    1200	    10.296
  17.580	        89	    1200	     9.434
  17.600	       112	    1200	    10.583
  17.620	       115	    1200	    10.724
  17.640	        91	    1200	     9.539
  17.660	       127	    1200	    11.269
  17.680	       119	    1200	    10.909
  17.700	       120	    1200	    10.954
  17.720	       113	    1200	    10.630
  17.740	       105	    1200	    10.247
  17.760	       109	    1200	    10.440
  17.780	       104	    1200	    10.198
  17.800	       105	    1200	    10.247
  17.820	       106	    1200	    10.296
  17.840	       126	    1200	    11.225
  17.860	        98	    1200	     9.899
  17.880	       123	    1200	    11.091
  17.900	       104	    1200	    10.198
  17.920	       106	    1200	    10.296
  17.940	       111	    1200	    10.536
  17.960	        98	    1200	     9.899
  17.980	        92	    1200	     9.592
  18.000	       104	    1200	    10.198
  18.020	       125	    1200	    11.180
  18.040	       112	    1200	    10.583
  18.060	       111	    1200	    10.536
  18.080	       107	    1200	    10.344
  18.100	       117	    1200	    10.817
  18.120	       104	    1200	    10.198
  18.140	       123	    1200	    11.091
  18.160	       126	    1200	    11.225
  18.180	       120	    1200	    10.954
  18.200	       129	    1200	    11.358
  18.220	       116	    1200	    10.770
  18.240	       108	    1200	    10.392
  18.260	       131	    1200	    11.446
  18.280	       127	    1200	    11.269
  18.300	       107	    1200	    10.344
  18.320	       109	    1200	    10.440
  18.340	       105	    1200	    10.247
  18.360	       115	    1200	    10.724
  18.380	       128	    1200	    11.314
  18.400	       110	    1200	    10.488
  18.420	        94	    1200	     9.695
  18.440	       118	    1200	    10.863
  18.460	       108	    1200	    10.392
  18.480	       128	    1200	    11.314
  18.500	       108	    1200	    10.392
  18.520	       117	    1200	    10.817
  18.540	        92	    1200	     9.592
  18.560	       123	    1200	    11.091
  18.580	       113	    1200	    10.630
  18.600	       113	    1200	    10.630
  18.620	       101	    1200	    10.050
  18.640	       112	    1200	    10.583
  18.660	       115	    1200	    10.724
  18.680	       114	    1200	    10.677
  18.700	        96	    1200	     9.798
  18.720	       109	    1200	    10.440
  18.740	        94	    1200	     9.695
  18.760	       110	    1200	    10.488
  18.780	       118	    1200	    10.863
  18.800	       106	    1200	    10.296
  18.820	        93	    1200	     9.644
  18.840	       108	    1200	    10.392
  18.860	       118	    1200	    10.863
  18.880	       109	    1200	    10.440
  18.900	       105	    1200	    10.247
  18.920	       138	    1200	    11.747
  18.940	       112	    1200	    10.583
  18.960	       102	    1200	    10.100
  18.980	       106	    1200	    10.296
  19.000	       112	    1200	    10.583
  19.020	        95	    1200	     9.747
  19.040	       115	    1200	    10.724
  19.060	       111	    1200	    10.536
  19.080	       119	    1200	    10.909
  19.100	       113	    1200	    10.630
  19.120	       116	    1200	    10.770
  19.140	       114	    1200	    10.677
  19.160	       109	    1200	    10.440
  19.180	       123	    1200	    11.091
  19.200	       111	    1200	    10.536
  19.220	       110	    1200	    10.488
  19.240	       114	    1200	    10.677
  19.260	       100	    1200	    10.000
  19.280	       112	    1200	    10.583
  19.300	       106	    1200	    10.296
  19.320	       115	    1200	    10.724
  19.340	       111	    1200	    10.536
  19.360	        98	    1200	     9.899
  19.380	       104	    1200	    10.198
  19.400	       105	    1200	    10.247
  19.420	       129	    1200	    11.358
  19.440	       115	    1200	    10.724
  19.460	        94	    1200	     9.695
  19.480	       112	    1200	    10.583
  19.500	       101	    1200	    10.050
  19.520	       105	    1200	    10.247
  19.540	       106	    1200	    10.296
  19.560	       102	    1200	    10.100
  19.580	       107	    1200	    10.344
  19.600	       107	    1200	    10.344
  19.620	        93	    1200	     9.644
  19.640	        93	    1200	     9.644
  19.660	       113	    1200	    10.630
  19.680	       104	    1200	    10.198
  19.700	       118	    1200	    10.863
  19.720	       114	    1200	    10.677
  19.740	       123	    1200	    11.091
  19.760	       100	    1200	    10.000
  19.780	        88	    1200	     9.381
  19.800	       115	    1200	    10.724
  19.820	       123	    1200	    11.091
  19.840	       104	    1200	    10.198
  19.860	       121	    1200	    11.000
  19.880	       119	    1200	    10.909
  19.900	       115	    1200	    10.724
  19.920	       131	    1200	    11.446
  19.940	        92	    1200	     9.592
  19.960	       114	    1200	    10.677
  19.980	       123	    1200	    11.091
  20.000	       109	    1200	    10.440
  20.020	       102	    1200	    10.100
  20.040	       105	    1200	    10.247
  20.060	       108	    1200	    10.392
  20.080	       110	    1200	    10.488
  20.100	       100	    1200	    10.000
  20.120	       102	    1200	    10.100
  20.140	       110	    1200	    10.488
  20.160	        99	    1200	     9.950
  20.180	       101	    1200	    10.050
  20.200	       108	    1200	    10.392
  20.220	       114	    1200	    10.677
  20.240	       101	    1200	    10.050
  20.260	       100	    1200	    10.000
  20.280	       113	    1200	    10.630
  20.300	       120	    1200	    10.954
  20.320	       116	    1200	    10.770
  20.340	       101	    1200	    10.050
  20.360	       103	    1200	    10.149
  20.380	       114	    1200	    10.677
  20.400	       108	    1200	    10.392
  20.420	       105	    1200	    10.247
  20.440	        94	    1200	     9.695
  20.460	       115	    1200	    10.724
  20.480	       106	    1200	    10.296
  20.500	        89	    1200	     9.434
  20.520	        97	    1200	     9.849
  20.540	        95	    1200	     9.747
  20.560	       122	    1200	    11.045
  20.580	       111	    1200	    10.536
  20.600	        95	    1200	     9.747
  20.620	       114	    1200	    10.677
  20.640	       110	    1200	    10.488
  20.660	        95	    1200	     9.747
  20.680	        99	    1200	     9.950
  20.700	        86	    1200	     9.274
  20.720	       111	    1200	    10.536
  20.740	       107	    1200	    10.344
  20.760	        99	    1200	     9.950
  20.780	       129	    1200	    11.358
  20.800	       103	    1200	    10.149
  20.820	        95	    1200	     9.747
  20.840	       124	    1200	    11.136
  20.860	       111	    1200	    10.536
  20.880	       105	    1200	    10.247
  20.900	        95	    1200	     9.747
  20.920	        95	    1200	     9.747
  20.940	       114	    1200	    10.677
  20.960	        94	    1200	     9.695
  20.980	        98	    1200	     9.899
  21.000	        93	    1200	     9.644
  21.020	       100	    1200	    10.000
  21.040	       126	    1200	    11.225
  21.060	       101	    1200	    10.050
  21.080	        98	    1200	     9.899
  21.100	        93	    1200	     9.644
  21.120	       111	    1200	    10.536
  21.140	       106	    1200	    10.296
  21.160	       102	    1200	    10.100
  21.180	        97	    1200	     9.849
  21.200	        97	    1200	     9.849
  21.220	       111	    1200	    10.536
  21.240	        94	    1200	     9.695
  21.260	       107	    1200	    10.344
  21.280	       113	    1200	    10.630
  21.300	       110	    1200	    10.488
  21.320	       113	    1200	    10.630
  21.340	       101	    1200	    10.050
  21.360	       104	    1200	    10.198
  21.380	       100	    1200	    10.000
  21.400	       119	    1200	    10.909
  21.420	        99	    1200	     9.950
  21.440	       111	    1200	    10.536
  21.460	       112	    1200	    10.583
  21.480	       105	    1200	    10.247
  21.500	       104	    1200	    10.198
  21.520	       113	    1200	    10.630
  21.540	       103	    1200	    10.149
  21.560	       109	    1200	    10.440
  21.580	        94	    1200	     9.695
  21.600	       113	    1200	    10.630
  21.620	       118	    1200	    10.863
  21.640	       117	    1200	    10.817
  21.660	       104	    1200	    10.198
  21.680	        96	    1200	     9.798
  21.700	       109	    1200	    10.440
  21.720	       102	    1200	    10.100
  21.740	        91	    1200	     9.539
  21.760	       114	    1200	    10.677
  21.780	       100	    1200	    10.000
  21.800	       108	    1200	    10.392
  21.820	       123	    1200	    11.091
  21.840	       111	    1200	    10.536
  21.860	       106	    1200	    10.296
  21.880	        98	    1200	     9.899
  21.900	       113	    1200	    10.630
  21.920	       106	    1200	    10.296
  21.940	       105	    1200	    10.247
  21.960	        86	    1200	     9.274
  21.980	       107	    1200	    10.344
  22.000	       106	    1200	    10.296
  22.020	        98	    1200	     9.899
  22.040	        89	    1200	     9.434
  22.060	        94	    1200	     9.695
  22.080	       113	    1200	    10.630
  22.100	       117	    1200	    10.817
  22.120	        95	    1200	     9.747
  22.140	       106	    1200	    10.296
  22.160	        92	    1200	     9.592
  22.180	       115	    1200	    10.724
  22.200	       115	    1200	    10.724
  22.220	       119	    1200	    10.909
  22.240	        94	    1200	     9.695
  22.260	       122	    1200	    11.045
  22.280	       101	    1200	    10.050
  22.300	       103	    1200	    10.149
  22.320	        98	    1200	     9.899
  22.340	       102	    1200	    10.100
  22.360	        84	    1200	     9.165
  22.380	       102	    1200	    10.100
  22.400	       101	    1200	    10.050
  22.420	       121	    1200	    11.000
  22.440	       110	    1200	    10.488
  22.460	       115	    1200	    10.724
  22.480	       106	    1200	    10.296
  22.500	       113	    1200	    10.630
  22.520	       109	    1200	    10.440
  22.540	       121	    1200	    11.000
  22.560	       100	    1200	    10.000
  22.580	       111	    1200	    10.536
  22.600	       128	    1200	    11.314
  22.620	       111	    1200	    10.536
  22.640	       133	    1200	    11.533
  22.660	       125	    1200	    11.180
  22.680	       136	    1200	    11.662
  22.700	       136	    1200	    11.662
  22.720	       104	    1200	    10.198
  22.740	       113	    1200	    10.630
  22.760	       114	    1200	    10.677
  22.780	       122	    1200	    11.045
  22.800	       145	    1200	    12.042
  22.820	       131	    1200	    11.446
  22.840	       125	    1200	    11.180
  22.860	       109	    1200	    10.440
  22.880	       135	    1200	    11.619
  22.900	       135	    1200	    11.619
  22.920	       114	    1200	    10.677
  22.940	       124	    1200	    11.136
  22.960	       119	    1200	    10.909
  22.980	       122	    1200	    11.045
  23.000	       137	    1200	    11.705
  23.020	       103	    1200	    10.149
  23.040	       112	    1200	    10.583
  23.060	       113	    1200	    10.630
  23.080	       110	    1200	    10.488
  23.100	       121	    1200	    11.000
  23.120	       113	    1200	    10.630
  23.140	        95	    1200	     9.747
  23.160	       111	    1200	    10.536
  23.180	       108	    1200	    10.392
  23.200	       123	    1200	    11.091
  23.220	       111	    1200	    10.536
  23.240	        98	    1200	     9.899
  23.260	       112	    1200	    10.583
  23.280	       116	    1200	    10.770
  23.300	       104	    1200	    10.198
  23.320	       111	    1200	    10.536
  23.340	       105	    1200	    10.247
  23.360	        95	    1200	     9.747
  23.380	       105	    1200	    10.247
  23.400	        91	    1200	     9.539
  23.420	        83	    1200	     9.110
  23.440	        95	    1200	     9.747
  23.460	        90	    1200	     9.487
  23.480	       109	    1200	    10.440
  23.500	       114	    1200	    10.677
  23.520	       101	    1200	    10.050
  23.540	        93	    1200	     9.644
  23.560	        82	    1200	     9.055
  23.580	        95	    1200	     9.747
  23.600	        86	    1200	     9.274
  23.620	        94	    1200	     9.695
  23.640	       113	    1200	    10.630
  23.660	       103	    1200	    10.149
  23.680	        99	    1200	     9.950
  23.700	        99	    1200	     9.950
  23.720	        97	    1200	     9.849
  23.740	        97	    1200	     9.849
  23.760	        98	    1200	     9.899
  23.780	       102	    1200	    10.100
  23.800	       114	    1200	    10.677
  23.820	        86	    1200	     9.274
  23.840	        85	    1200	     9.220
  23.860	        93	    1200	     9.644
  23.880	        89	    1200	     9.434
  23.900	       107	    1200	    10.344
  23.920	       110	    1200	    10.488
  23.940	       103	    1200	    10.149
  23.960	        91	    1200	     9.539
  23.980	        92	    1200	     9.592
  24.000	        96	    1200	     9.798
  24.020	       107	    1200	    10.344
  24.040	        89	    1200	     9.434
  24.060	        87	    1200	     9.327
