         ID: 

    Comment: 

Scan Type: Normal
Start Angle: 15 deg.
Stop Angle: 90 deg.
Num Points: 3751
Step Size: 0.02 deg.
Datafile Res: 1600 
Scan Rate: 1.000000
Scan Mode: Continuous
Wavelength: 1.540562

Diffractometer Optics:
		Detector:
			 Type: Fixed Slits
			 X2 Configuration: No
		Tube: 
			 Type: Fixed Slits
			 X2 Configuration: No


Axis[0]
	 Selected   : no 
	 Iterative  : no 
	 Start Angle: 0.000000 
	 Stop Angle : 0.000000 
	 Step Size  : 0.000000 
	 Oscillating: no 

Axis[1]
	 Selected   : no 
	 Iterative  : no 
	 Start Angle: 0.000000 
	 Stop Angle : 0.000000 
	 Step Size  : 0.000000 
	 Oscillating: no 

Axis[2]
	 Selected   : no 
	 Iterative  : no 
	 Start Angle: 0.000000 
	 Stop Angle : 0.000000 
	 Step Size  : 0.000000 
	 Oscillating: no 

Axis[3]
	 Selected   : no 
	 Iterative  : no 
	 Start Angle: 0.000000 
	 Stop Angle : 0.000000 
	 Step Size  : 0.000000 
	 Oscillating: no 

Axis[4]
	 Selected   : no 
	 Iterative  : no 
	 Start Angle: 0.000000 
	 Stop Angle : 0.000000 
	 Step Size  : 0.000000 
	 Oscillating: no 

Axis[5]
	 Selected   : no 
	 Iterative  : no 
	 Start Angle: 0.000000 
	 Stop Angle : 0.000000 
	 Step Size  : 0.000000 
	 Oscillating: no 

Axis[6]
	 Selected   : no 
	 Iterative  : no 
	 Start Angle: 0.000000 
	 Stop Angle : 0.000000 
	 Step Size  : 0.000000 
	 Oscillating: no 

Axis[7]
	 Selected   : no 
	 Iterative  : no 
	 Start Angle: 0.000000 
	 Stop Angle : 0.000000 
	 Step Size  : 0.000000 
	 Oscillating: no 

Axis[8]
	 Selected   : no 
	 Iterative  : no 
	 Start Angle: 0.000000 
	 Stop Angle : 0.000000 
	 Step Size  : 0.000000 
	 Oscillating: no 

Axis[9]
	 Selected   : no 
	 Iterative  : no 
	 Start Angle: 0.000000 
	 Stop Angle : 0.000000 
	 Step Size  : 0.000000 
	 Oscillating: no 




	   Deg.    Counts 	   Time 	    ESD   

Range 0
  15.000	       122	    1200	    11.045
  15.020	       145	    1200	    12.042
  15.040	       130	    1200	    11.402
  15.060	       111	    1200	    10.536
  15.080	       123	    1200	    11.091
  15.100	       111	    1200	    10.536
  15.120	       121	    1200	    11.000
  15.140	       118	    1200	    10.863
  15.160	       113	    1200	    10.630
  15.180	       143	    1200	    11.958
  15.200	       134	    1200	    11.576
  15.220	       121	    1200	    11.000
  15.240	       134	    1200	    11.576
  15.260	       129	    1200	    11.358
  15.280	       124	    1200	    11.136
  15.300	       120	    1200	    10.954
  15.320	       126	    1200	    11.225
  15.340	       127	    1200	    11.269
  15.360	       148	    1200	    12.166
  15.380	       109	    1200	    10.440
  15.400	       109	    1200	    10.440
  15.420	       136	    1200	    11.662
  15.440	       140	    1200	    11.832
  15.460	       148	    1200	    12.166
  15.480	       120	    1200	    10.954
  15.500	       145	    1200	    12.042
  15.520	       152	    1200	    12.329
  15.540	       113	    1200	    10.630
  15.560	       128	    1200	    11.314
  15.580	       132	    1200	    11.489
  15.600	       125	    1200	    11.180
  15.620	       121	    1200	    11.000
  15.640	       148	    1200	    12.166
  15.660	       125	    1200	    11.180
  15.680	       123	    1200	    11.091
  15.700	       140	    1200	    11.832
  15.720	       103	    1200	    10.149
  15.740	       131	    1200	    11.446
  15.760	       136	    1200	    11.662
  15.780	       122	    1200	    11.045
  15.800	       131	    1200	    11.446
  15.820	       122	    1200	    11.045
  15.840	       152	    1200	    12.329
  15.860	       124	    1200	    11.136
  15.880	       116	    1200	    10.770
  15.900	       120	    1200	    10.954
  15.920	       124	    1200	    11.136
  15.940	       149	    1200	    12.207
  15.960	       124	    1200	    11.136
  15.980	       109	    1200	    10.440
  16.000	       126	    1200	    11.225
  16.020	       110	    1200	    10.488
  16.040	       125	    1200	    11.180
  16.060	       130	    1200	    11.402
  16.080	       133	    1200	    11.533
  16.100	       126	    1200	    11.225
  16.120	       122	    1200	    11.045
  16.140	       126	    1200	    11.225
  16.160	       128	    1200	    11.314
  16.180	       126	    1200	    11.225
  16.200	       130	    1200	    11.402
  16.220	       132	    1200	    11.489
  16.240	       109	    1200	    10.440
  16.260	       159	    1200	    12.610
  16.280	       101	    1200	    10.050
  16.300	       124	    1200	    11.136
  16.320	       107	    1200	    10.344
  16.340	       119	    1200	    10.909
  16.360	       124	    1200	    11.136
  16.380	       123	    1200	    11.091
  16.400	       141	    1200	    11.874
  16.420	       119	    1200	    10.909
  16.440	       128	    1200	    11.314
  16.460	       119	    1200	    10.909
  16.480	       123	    1200	    11.091
  16.500	       132	    1200	    11.489
  16.520	       103	    1200	    10.149
  16.540	       136	    1200	    11.662
  16.560	       124	    1200	    11.136
  16.580	       119	    1200	    10.909
  16.600	       126	    1200	    11.225
  16.620	       111	    1200	    10.536
  16.640	       134	    1200	    11.576
  16.660	       134	    1200	    11.576
  16.680	       131	    1200	    11.446
  16.700	       131	    1200	    11.446
  16.720	       137	    1200	    11.705
  16.740	       119	    1200	    10.909
  16.760	       134	    1200	    11.576
  16.780	       116	    1200	    10.770
  16.800	       144	    1200	    12.000
  16.820	       130	    1200	    11.402
  16.840	       120	    1200	    10.954
  16.860	       137	    1200	    11.705
  16.880	       128	    1200	    11.314
  16.900	       116	    1200	    10.770
  16.920	       137	    1200	    11.705
  16.940	       130	    1200	    11.402
  16.960	       130	    1200	    11.402
  16.980	       111	    1200	    10.536
  17.000	       127	    1200	    11.269
  17.020	       128	    1200	    11.314
  17.040	        97	    1200	     9.849
  17.060	       134	    1200	    11.576
  17.080	       133	    1200	    11.533
  17.100	       143	    1200	    11.958
  17.120	       140	    1200	    11.832
  17.140	       129	    1200	    11.358
  17.160	       124	    1200	    11.136
  17.180	       127	    1200	    11.269
  17.200	       132	    1200	    11.489
  17.220	       134	    1200	    11.576
  17.240	       114	    1200	    10.677
  17.260	       135	    1200	    11.619
  17.280	       108	    1200	    10.392
  17.300	       129	    1200	    11.358
  17.320	       128	    1200	    11.314
  17.340	       132	    1200	    11.489
  17.360	       129	    1200	    11.358
  17.380	       112	    1200	    10.583
  17.400	       117	    1200	    10.817
  17.420	       125	    1200	    11.180
  17.440	       140	    1200	    11.832
  17.460	       128	    1200	    11.314
  17.480	       124	    1200	    11.136
  17.500	       138	    1200	    11.747
  17.520	       139	    1200	    11.790
  17.540	       154	    1200	    12.410
  17.560	       113	    1200	    10.630
  17.580	       117	    1200	    10.817
  17.600	       149	    1200	    12.207
  17.620	       166	    1200	    12.884
  17.640	       113	    1200	    10.630
  17.660	       114	    1200	    10.677
  17.680	       136	    1200	    11.662
  17.700	       144	    1200	    12.000
  17.720	       122	    1200	    11.045
  17.740	       134	    1200	    11.576
  17.760	       126	    1200	    11.225
  17.780	       123	    1200	    11.091
  17.800	       119	    1200	    10.909
  17.820	       138	    1200	    11.747
  17.840	       135	    1200	    11.619
  17.860	       119	    1200	    10.909
  17.880	       132	    1200	    11.489
  17.900	       122	    1200	    11.045
  17.920	       119	    1200	    10.909
  17.940	       110	    1200	    10.488
  17.960	       112	    1200	    10.583
  17.980	       121	    1200	    11.000
  18.000	       120	    1200	    10.954
  18.020	       140	    1200	    11.832
  18.040	       132	    1200	    11.489
  18.060	       135	    1200	    11.619
  18.080	       118	    1200	    10.863
  18.100	       131	    1200	    11.446
  18.120	       132	    1200	    11.489
  18.140	       128	    1200	    11.314
  18.160	       131	    1200	    11.446
  18.180	       118	    1200	    10.863
  18.200	       141	    1200	    11.874
  18.220	       122	    1200	    11.045
  18.240	       110	    1200	    10.488
  18.260	       132	    1200	    11.489
  18.280	       147	    1200	    12.124
  18.300	       120	    1200	    10.954
  18.320	       132	    1200	    11.489
  18.340	       116	    1200	    10.770
  18.360	       114	    1200	    10.677
  18.380	       126	    1200	    11.225
  18.400	       124	    1200	    11.136
  18.420	       119	    1200	    10.909
  18.440	       133	    1200	    11.533
  18.460	       131	    1200	    11.446
  18.480	       146	    1200	    12.083
  18.500	       130	    1200	    11.402
  18.520	       121	    1200	    11.000
  18.540	       136	    1200	    11.662
  18.560	       125	    1200	    11.180
  18.580	       129	    1200	    11.358
  18.600	       130	    1200	    11.402
  18.620	       125	    1200	    11.180
  18.640	       129	    1200	    11.358
  18.660	       142	    1200	    11.916
  18.680	       149	    1200	    12.207
  18.700	       132	    1200	    11.489
  18.720	       142	    1200	    11.916
  18.740	       134	    1200	    11.576
  18.760	       122	    1200	    11.045
  18.780	       122	    1200	    11.045
  18.800	       146	    1200	    12.083
  18.820	       144	    1200	    12.000
  18.840	       122	    1200	    11.045
  18.860	       135	    1200	    11.619
  18.880	       131	    1200	    11.446
  18.900	       126	    1200	    11.225
  18.920	       130	    1200	    11.402
  18.940	       129	    1200	    11.358
  18.960	       112	    1200	    10.583
  18.980	       163	    1200	    12.767
  19.000	       167	    1200	    12.923
  19.020	       155	    1200	    12.450
  19.040	       141	    1200	    11.874
  19.060	       118	    1200	    10.863
  19.080	       149	    1200	    12.207
  19.100	       136	    1200	    11.662
  19.120	       122	    1200	    11.045
  19.140	       131	    1200	    11.446
  19.160	       135	    1200	    11.619
  19.180	       137	    1200	    11.705
  19.200	       122	    1200	    11.045
  19.220	       140	    1200	    11.832
  19.240	       125	    1200	    11.180
  19.260	       136	    1200	    11.662
  19.280	       126	    1200	    11.225
  19.300	       127	    1200	    11.269
  19.320	       133	    1200	    11.533
  19.340	       119	    1200	    10.909
  19.360	       113	    1200	    10.630
  19.380	       111	    1200	    10.536
  19.400	       130	    1200	    11.402
  19.420	       122	    1200	    11.045
  19.440	       153	    1200	    12.369
  19.460	       134	    1200	    11.576
  19.480	       139	    1200	    11.790
  19.500	       128	    1200	    11.314
  19.520	       126	    1200	    11.225
  19.540	       127	    1200	    11.269
  19.560	       130	    1200	    11.402
  19.580	       120	    1200	    10.954
  19.600	       128	    1200	    11.314
  19.620	       135	    1200	    11.619
  19.640	       130	    1200	    11.402
  19.660	       143	    1200	    11.958
  19.680	       140	    1200	    11.832
  19.700	       124	    1200	    11.136
  19.720	       145	    1200	    12.042
  19.740	       146	    1200	    12.083
  19.760	       124	    1200	    11.136
  19.780	       140	    1200	    11.832
  19.800	       128	    1200	    11.314
  19.820	       132	    1200	    11.489
  19.840	       132	    1200	    11.489
  19.860	       128	    1200	    11.314
  19.880	       133	    1200	    11.533
  19.900	       145	    1200	    12.042
  19.920	       159	    1200	    12.610
  19.940	       132	    1200	    11.489
  19.960	       127	    1200	    11.269
  19.980	       146	    1200	    12.083
  20.000	       133	    1200	    11.533
  20.020	       144	    1200	    12.000
  20.040	       150	    1200	    12.247
  20.060	       135	    1200	    11.619
  20.080	       136	    1200	    11.662
  20.100	       151	    1200	    12.288
  20.120	       158	    1200	    12.570
  20.140	       147	    1200	    12.124
  20.160	       140	    1200	    11.832
  20.180	       141	    1200	    11.874
  20.200	       136	    1200	    11.662
  20.220	       137	    1200	    11.705
  20.240	       161	    1200	    12.689
  20.260	       115	    1200	    10.724
  20.280	       137	    1200	    11.705
  20.300	       141	    1200	    11.874
  20.320	       167	    1200	    12.923
  20.340	       134	    1200	    11.576
  20.360	       136	    1200	    11.662
  20.380	       137	    1200	    11.705
  20.400	       173	    1200	    13.153
  20.420	       126	    1200	    11.225
  20.440	       147	    1200	    12.124
  20.460	       122	    1200	    11.045
  20.480	       124	    1200	    11.136
  20.500	       149	    1200	    12.207
  20.520	       137	    1200	    11.705
  20.540	       154	    1200	    12.410
  20.560	       151	    1200	    12.288
  20.580	       126	    1200	    11.225
  20.600	       146	    1200	    12.083
  20.620	       134	    1200	    11.576
  20.640	       136	    1200	    11.662
  20.660	       124	    1200	    11.136
  20.680	       122	    1200	    11.045
  20.700	       119	    1200	    10.909
  20.720	       140	    1200	    11.832
  20.740	       127	    1200	    11.269
  20.760	       140	    1200	    11.832
  20.780	       117	    1200	    10.817
  20.800	       138	    1200	    11.747
  20.820	       124	    1200	    11.136
  20.840	       133	    1200	    11.533
  20.860	       132	    1200	    11.489
  20.880	       135	    1200	    11.619
  20.900	       165	    1200	    12.845
  20.920	       150	    1200	    12.247
  20.940	       130	    1200	    11.402
  20.960	       146	    1200	    12.083
  20.980	       134	    1200	    11.576
  21.000	       147	    1200	    12.124
  21.020	       144	    1200	    12.000
  21.040	       138	    1200	    11.747
  21.060	       141	    1200	    11.874
  21.080	       125	    1200	    11.180
  21.100	       145	    1200	    12.042
  21.120	       146	    1200	    12.083
  21.140	       145	    1200	    12.042
  21.160	       152	    1200	    12.329
  21.180	       130	    1200	    11.402
  21.200	       135	    1200	    11.619
  21.220	       141	    1200	    11.874
  21.240	       133	    1200	    11.533
  21.260	       149	    1200	    12.207
  21.280	       127	    1200	    11.269
  21.300	       113	    1200	    10.630
  21.320	       144	    1200	    12.000
  21.340	       140	    1200	    11.832
  21.360	       151	    1200	    12.288
  21.380	       139	    1200	    11.790
  21.400	       135	    1200	    11.619
  21.420	       133	    1200	    11.533
  21.440	       137	    1200	    11.705
  21.460	       159	    1200	    12.610
  21.480	       125	    1200	    11.180
  21.500	       148	    1200	    12.166
  21.520	       146	    1200	    12.083
  21.540	       146	    1200	    12.083
  21.560	       128	    1200	    11.314
  21.580	       163	    1200	    12.767
  21.600	       153	    1200	    12.369
  21.620	       146	    1200	    12.083
  21.640	       125	    1200	    11.180
  21.660	       155	    1200	    12.450
  21.680	       142	    1200	    11.916
  21.700	       140	    1200	    11.832
  21.720	       139	    1200	    11.790
  21.740	       129	    1200	    11.358
  21.760	       142	    1200	    11.916
  21.780	       131	    1200	    11.446
  21.800	       140	    1200	    11.832
  21.820	       142	    1200	    11.916
  21.840	       129	    1200	    11.358
  21.860	       133	    1200	    11.533
  21.880	       126	    1200	    11.225
  21.900	       140	    1200	    11.832
  21.920	       137	    1200	    11.705
  21.940	       138	    1200	    11.747
  21.960	       154	    1200	    12.410
  21.980	       130	    1200	    11.402
  22.000	       162	    1200	    12.728
  22.020	       153	    1200	    12.369
  22.040	       143	    1200	    11.958
  22.060	       151	    1200	    12.288
  22.080	       135	    1200	    11.619
  22.100	       162	    1200	    12.728
  22.120	       143	    1200	    11.958
  22.140	       123	    1200	    11.091
  22.160	       138	    1200	    11.747
  22.180	       138	    1200	    11.747
  22.200	       147	    1200	    12.124
  22.220	       139	    1200	    11.790
  22.240	       144	    1200	    12.000
  22.260	       136	    1200	    11.662
  22.280	       145	    1200	    12.042
  22.300	       137	    1200	    11.705
  22.320	       148	    1200	    12.166
  22.340	       116	    1200	    10.770
  22.360	       119	    1200	    10.909
  22.380	       155	    1200	    12.450
  22.400	       144	    1200	    12.000
  22.420	       134	    1200	    11.576
  22.440	       152	    1200	    12.329
  22.460	       158	    1200	    12.570
  22.480	       151	    1200	    12.288
  22.500	       152	    1200	    12.329
  22.520	       148	    1200	    12.166
  22.540	       182	    1200	    13.491
  22.560	       139	    1200	    11.790
  22.580	       157	    1200	    12.530
  22.600	       156	    1200	    12.490
  22.620	       169	    1200	    13.000
  22.640	       195	    1200	    13.964
  22.660	       192	    1200	    13.856
  22.680	       212	    1200	    14.560
  22.700	       216	    1200	    14.697
  22.720	       187	    1200	    13.675
  22.740	       195	    1200	    13.964
  22.760	       188	    1200	    13.711
  22.780	       165	    1200	    12.845
  22.800	       151	    1200	    12.288
  22.820	       146	    1200	    12.083
  22.840	       163	    1200	    12.767
  22.860	       157	    1200	    12.530
  22.880	       178	    1200	    13.342
  22.900	       157	    1200	    12.530
  22.920	       136	    1200	    11.662
  22.940	       158	    1200	    12.570
  22.960	       140	    1200	    11.832
  22.980	       144	    1200	    12.000
  23.000	       152	    1200	    12.329
  23.020	       137	    1200	    11.705
  23.040	       119	    1200	    10.909
  23.060	       121	    1200	    11.000
  23.080	       152	    1200	    12.329
  23.100	       149	    1200	    12.207
  23.120	       142	    1200	    11.916
  23.140	       129	    1200	    11.358
  23.160	       142	    1200	    11.916
  23.180	       129	    1200	    11.358
  23.200	       131	    1200	    11.446
  23.220	       146	    1200	    12.083
  23.240	       129	    1200	    11.358
  23.260	       132	    1200	    11.489
  23.280	       175	    1200	    13.229
  23.300	       132	    1200	    11.489
  23.320	       124	    1200	    11.136
  23.340	       122	    1200	    11.045
  23.360	       129	    1200	    11.358
  23.380	       122	    1200	    11.045
  23.400	       118	    1200	    10.863
  23.420	       124	    1200	    11.136
  23.440	       105	    1200	    10.247
  23.460	       132	    1200	    11.489
  23.480	       120	    1200	    10.954
  23.500	       123	    1200	    11.091
  23.520	       152	    1200	    12.329
  23.540	       144	    1200	    12.000
  23.560	       146	    1200	    12.083
  23.580	       134	    1200	    11.576
  23.600	       129	    1200	    11.358
  23.620	       131	    1200	    11.446
  23.640	       136	    1200	    11.662
  23.660	       124	    1200	    11.136
  23.680	       133	    1200	    11.533
  23.700	       128	    1200	    11.314
  23.720	       120	    1200	    10.954
  23.740	       136	    1200	    11.662
  23.760	       113	    1200	    10.630
  23.780	       144	    1200	    12.000
  23.800	       133	    1200	    11.533
  23.820	       110	    1200	    10.488
  23.840	       128	    1200	    11.314
  23.860	       122	    1200	    11.045
  23.880	       130	    1200	    11.402
  23.900	       116	    1200	    10.770
  23.920	       124	    1200	    11.136
  23.940	       117	    1200	    10.817
  23.960	       138	    1200	    11.747
  23.980	       123	    1200	    11.091
  24.000	       118	    1200	    10.863
  24.020	       117	    1200	    10.817
  24.040	       128	    1200	    11.314
  24.060	       140	    1200	    11.832
