*FILE_COMMENT ""
*FILE_MD5 ""
*FILE_MEMO ""
*FILE_OPERATOR "Administrator"
*FILE_PACKAGE_NAME ""
*FILE_PART_ID "GeneralMeasurement(BB)"
*FILE_SAMPLE "STF7_50H2_50H2O_72Hr_Dilute"
*FILE_SYSTEM_NAME "SmartLab"
*FILE_TYPE "RAS_RAW"
*FILE_USERGROUP "Administrators"
*FILE_VERSION "1"
*HW_ATTACHMENT_ID "ATT0033"
*HW_ATTACHMENT_NAME "ASC6_Reflection"
*HW_ATTACHMENT_NAME_INTERNAL "ASC6_Reflection"
*HW_COUNTER_ID-0 "CUT0051"
*HW_COUNTER_ID-2 "CMC0020"
*HW_COUNTER_MONOCHRO_ID "CMC0020"
*HW_COUNTER_MONOCHRO_NAME "None"
*HW_COUNTER_MONOCHRO_NAME_INTERNAL "None"
*HW_COUNTER_NAME_INTERNAL "HyPix3000(H)"
*HW_COUNTER_NAME-0 "HyPix3000(H)"
*HW_COUNTER_NAME-1 "None"
*HW_COUNTER_NAME-2 "None"
*HW_COUNTER_PIXEL_SIZE "0.1"
*HW_COUNTER_SELECT_NAME "HyPix3000(H)"
*HW_EXTERNAL_CONTROLLER_NAME "None"
*HW_EXTERNAL_CONTROLLER_NAME_INTERNAL "None"
*HW_GONIOMETER_ID "GON0022"
*HW_GONIOMETER_NAME "StandardInplane"
*HW_GONIOMETER_NAME_INTERNAL "StandardInplaneEnc"
*HW_GONIOMETER_RADIUS-0 "90.0"
*HW_GONIOMETER_RADIUS-1 "114.0"
*HW_GONIOMETER_RADIUS-2 "190.0"
*HW_GONIOMETER_RADIUS-3 "300.0"
*HW_GONIOMETER_RADIUS-4 "187.0"
*HW_GONIOMETER_RADIUS-5 "300.0"
*HW_GONIOMETER_RADIUS-6 "113.0"
*HW_GONIOMETER_RADIUS-7 "331.0"
*HW_I_CBO_ID "CBO0021"
*HW_I_CBO_NAME "CBO"
*HW_I_CBO_NAME_INTERNAL "CBO"
*HW_I_MONOCHRO_ID "ISO0021"
*HW_I_MONOCHRO_NAME "IPS_adaptor"
*HW_I_MONOCHRO_NAME_INTERNAL "IPS_adaptor"
*HW_I_OPT_ID-1 "CBO0021"
*HW_I_OPT_ID-2 "ISL0021"
*HW_I_PRIMARY_NAME_INTERNAL "Standard"
*HW_I_SLIT_ID "ISL0021"
*HW_I_SLIT_NAME "Auto"
*HW_I_SLIT_NAME_INTERNAL "Auto"
*HW_R_ATTENUATER_AUTOMODE "0"
*HW_R_ATTENUATER_ID "ATN0020"
*HW_R_ATTENUATER_NAME "No_unit"
*HW_R_ATTENUATOR_NAME_INTERNAL "No_unit"
*HW_R_OPT_ID-0 "RSS0022"
*HW_R_OPT_ID-1 "RCR0022"
*HW_R_OPT_ID-2 "RSO0021"
*HW_R_OPT_ID-3 "RRS0022"
*HW_R_OPT_ID-4 "ATN0020"
*HW_R_ROD_ID "RCR0022"
*HW_R_ROD_NAME "ROD_adaptor"
*HW_R_ROD_NAME_INTERNAL "ROD_adaptor"
*HW_R_RPS_ID "RSO0021"
*HW_R_RPS_NAME "RPS_adaptor"
*HW_R_RPS_NAME_INTERNAL "RPS_adaptor"
*HW_R_RS_ID "RRS0022"
*HW_R_RS_NAME "Virtual"
*HW_R_RS_NAME_INTERNAL "Virtual"
*HW_R_SS_ID "RSS0022"
*HW_R_SS_NAME "Auto_Zr"
*HW_R_SS_NAME_INTERNAL "Auto_Zr"
*HW_ROBOT_NAME "No_unit"
*HW_ROBOT_NAME_INTERNAL "No_unit"
*HW_SAMPLE_CAMERA_NAME "SampleCamera_Inp"
*HW_SAMPLE_CAMERA_NAME_INTERNAL "SampleCamera_Inp"
*HW_SAMPLE_HOLDER_ID "SMP0023"
*HW_SAMPLE_HOLDER_NAME "Z"
*HW_SAMPLE_HOLDER_NAME_INTERNAL "Z"
*HW_SAMPLE_NAME "ReflectionForASC"
*HW_SAMPLE_NAME_INTERNAL "ReflectionForASC"
*HW_SAMPLE_PLATE_NAME "None"
*HW_SAMPLE_PLATE_NAME_INTERNAL "None"
*HW_SAMPLE_SPACER_NAME "None"
*HW_SAMPLE_SPACER_NAME_INTERNAL "None"
*HW_USERINFO_CATALOG_NO ""
*HW_USERINFO_INSTRUMENT_ID ""
*HW_USERINFO_INSTRUMENT_NAME ""
*HW_USERINFO_INSTRUMENT_NO ""
*HW_USERINFO_MODEL ""
*HW_USERINFO_ORDER_NO ""
*HW_USERINFO_SERIAL_NO ""
*HW_USERINFO_VERIFY_INSTRUMENT_ID "00-07-fe-01-04-5e"
*HW_VER_RCD_COUNTER_UNIT "1.0.1"
*HW_VER_RCD_CPU "3.2.2"
*HW_VER_RCD_FPGA "1.2.3"
*HW_VER_RCD_GONIO_UNIT "6.2.0"
*HW_VER_RCD_INCIDENT_UNIT "6.2.0"
*HW_VER_RCD_RECEIVING_UNIT "6.1.1"
*HW_VER_RCD_TYPE "RINC"
*HW_VER_XGC_CPU "3.2.2"
*HW_VER_XGC_CW "1.3.2"
*HW_VER_XGC_HV "1.3.2"
*HW_VER_XGC_RS1 "1.3.2"
*HW_VER_XGC_RS2 "N/A"
*HW_VER_XGC_RT "N/A"
*HW_VER_XGC_TYPE "RINC"
*HW_XG_CURRENT_UNIT "mA"
*HW_XG_FOCUS "0.4mm x 8mm"
*HW_XG_FOCUS_TYPE "Fine"
*HW_XG_TARGET_ATOMIC_NUMBER "29"
*HW_XG_TARGET_NAME "Cu"
*HW_XG_TYPE "Hermetic"
*HW_XG_VOLTAGE_UNIT "kV"
*HW_XG_WAVE_LENGTH_ALPHA1 "1.540593"
*HW_XG_WAVE_LENGTH_ALPHA2 "1.544414"
*HW_XG_WAVE_LENGTH_BETA "1.392246"
*HW_XG_WAVE_LENGTH_UNIT "Angstrom"
*MEAS_COND_AXIS_NAME_INTERNAL-0 "ThetaS"
*MEAS_COND_AXIS_NAME_INTERNAL-1 "ThetaD"
*MEAS_COND_AXIS_NAME_INTERNAL-10 "PrimaryGeometry"
*MEAS_COND_AXIS_NAME_INTERNAL-100 "CounterMonochromatorKind"
*MEAS_COND_AXIS_NAME_INTERNAL-11 "PrimaryMirrorType"
*MEAS_COND_AXIS_NAME_INTERNAL-12 "CBOType"
*MEAS_COND_AXIS_NAME_INTERNAL-13 "CBO-M"
*MEAS_COND_AXIS_NAME_INTERNAL-14 "CBO"
*MEAS_COND_AXIS_NAME_INTERNAL-15 "SelectionSlitType"
*MEAS_COND_AXIS_NAME_INTERNAL-16 "IncidentSollerSlit"
*MEAS_COND_AXIS_NAME_INTERNAL-17 "ISSType"
*MEAS_COND_AXIS_NAME_INTERNAL-18 "IncidentSlitBox"
*MEAS_COND_AXIS_NAME_INTERNAL-19 "IncidentSlitBox"
*MEAS_COND_AXIS_NAME_INTERNAL-2 "TwoTheta"
*MEAS_COND_AXIS_NAME_INTERNAL-20 "IncidentSlitBox"
*MEAS_COND_AXIS_NAME_INTERNAL-21 "Zs"
*MEAS_COND_AXIS_NAME_INTERNAL-22 "IncidentAxdSlit"
*MEAS_COND_AXIS_NAME_INTERNAL-23 "IncidentAxdSlit"
*MEAS_COND_AXIS_NAME_INTERNAL-24 "IncidentAxdSlit"
*MEAS_COND_AXIS_NAME_INTERNAL-25 "Z"
*MEAS_COND_AXIS_NAME_INTERNAL-26 "DirectBeamStop"
*MEAS_COND_AXIS_NAME_INTERNAL-27 "KnifeEdge"
*MEAS_COND_AXIS_NAME_INTERNAL-28 "Beta"
*MEAS_COND_AXIS_NAME_INTERNAL-29 "Changer"
*MEAS_COND_AXIS_NAME_INTERNAL-3 "Omega"
*MEAS_COND_AXIS_NAME_INTERNAL-30 "ReceivingSlitBox1"
*MEAS_COND_AXIS_NAME_INTERNAL-31 "ReceivingSlitBox1"
*MEAS_COND_AXIS_NAME_INTERNAL-32 "ReceivingSlitBox1"
*MEAS_COND_AXIS_NAME_INTERNAL-33 "Zr"
*MEAS_COND_AXIS_NAME_INTERNAL-34 "Filter"
*MEAS_COND_AXIS_NAME_INTERNAL-35 "PSA"
*MEAS_COND_AXIS_NAME_INTERNAL-36 "ReceivingSollerSlit"
*MEAS_COND_AXIS_NAME_INTERNAL-37 "ReceivingSlitBox2"
*MEAS_COND_AXIS_NAME_INTERNAL-38 "ReceivingSlitBox2"
*MEAS_COND_AXIS_NAME_INTERNAL-39 "ReceivingSlitBox2"
*MEAS_COND_AXIS_NAME_INTERNAL-4 "TwoThetaTheta"
*MEAS_COND_AXIS_NAME_INTERNAL-40 "ModuleSensorType"
*MEAS_COND_AXIS_NAME_INTERNAL-41 "GainMode"
*MEAS_COND_AXIS_NAME_INTERNAL-42 "PHA"
*MEAS_COND_AXIS_NAME_INTERNAL-43 "DetectorBeamStop"
*MEAS_COND_AXIS_NAME_INTERNAL-44 "DetectorFilter"
*MEAS_COND_AXIS_NAME_INTERNAL-45 "DedicatedHolder"
*MEAS_COND_AXIS_NAME_INTERNAL-46 "Target_TargetTime"
*MEAS_COND_AXIS_NAME_INTERNAL-47 "Target_XrayOnTime"
*MEAS_COND_AXIS_NAME_INTERNAL-48 "Target_HVGreaseUpTime"
*MEAS_COND_AXIS_NAME_INTERNAL-49 "Target_IG"
*MEAS_COND_AXIS_NAME_INTERNAL-5 "TwoThetaOmega"
*MEAS_COND_AXIS_NAME_INTERNAL-50 "Target_GP"
*MEAS_COND_AXIS_NAME_INTERNAL-51 "Target_FC"
*MEAS_COND_AXIS_NAME_INTERNAL-52 "HVPS_Bias"
*MEAS_COND_AXIS_NAME_INTERNAL-53 "HVPS_HVPSTime"
*MEAS_COND_AXIS_NAME_INTERNAL-54 "HVPS_Type1Time"
*MEAS_COND_AXIS_NAME_INTERNAL-55 "HVPS_Type2Time"
*MEAS_COND_AXIS_NAME_INTERNAL-56 "HVPS_Type3Time"
*MEAS_COND_AXIS_NAME_INTERNAL-57 "CW_IERTime"
*MEAS_COND_AXIS_NAME_INTERNAL-58 "CW_WaterHose"
*MEAS_COND_AXIS_NAME_INTERNAL-59 "CW_CoolingWater"
*MEAS_COND_AXIS_NAME_INTERNAL-6 "OmegaTwoTheta"
*MEAS_COND_AXIS_NAME_INTERNAL-60 "CW_ECTime"
*MEAS_COND_AXIS_NAME_INTERNAL-61 "CW_Flow1"
*MEAS_COND_AXIS_NAME_INTERNAL-62 "CW_Temperature1"
*MEAS_COND_AXIS_NAME_INTERNAL-63 "CW_Pressure1"
*MEAS_COND_AXIS_NAME_INTERNAL-64 "CW_PressureIn"
*MEAS_COND_AXIS_NAME_INTERNAL-65 "CW_PressureOut"
*MEAS_COND_AXIS_NAME_INTERNAL-66 "CW_Flow2"
*MEAS_COND_AXIS_NAME_INTERNAL-67 "CW_Temperature2"
*MEAS_COND_AXIS_NAME_INTERNAL-68 "CW_Pressure2"
*MEAS_COND_AXIS_NAME_INTERNAL-69 "RE_EnclosureTemp"
*MEAS_COND_AXIS_NAME_INTERNAL-7 "TwoThetaChi"
*MEAS_COND_AXIS_NAME_INTERNAL-70 "RE_EnclosureHummidity"
*MEAS_COND_AXIS_NAME_INTERNAL-71 "RE_CabinetTemp"
*MEAS_COND_AXIS_NAME_INTERNAL-72 "RE_RPTemp"
*MEAS_COND_AXIS_NAME_INTERNAL-73 "RE_ShutterAXrayOnTime"
*MEAS_COND_AXIS_NAME_INTERNAL-74 "RE_ShutterATimes"
*MEAS_COND_AXIS_NAME_INTERNAL-75 "RE_ShutterAOpenCloseTime"
*MEAS_COND_AXIS_NAME_INTERNAL-76 "RE_ShutterACloseOpenTime"
*MEAS_COND_AXIS_NAME_INTERNAL-77 "RE_ShutterBXrayOnTime"
*MEAS_COND_AXIS_NAME_INTERNAL-78 "RE_ShutterBTimes"
*MEAS_COND_AXIS_NAME_INTERNAL-79 "RE_ShutterBOpenCloseTime"
*MEAS_COND_AXIS_NAME_INTERNAL-8 "GonioDirectBeamStop"
*MEAS_COND_AXIS_NAME_INTERNAL-80 "RE_ShutterBCloseOpenTime"
*MEAS_COND_AXIS_NAME_INTERNAL-81 "RE_XrayWarningRamp"
*MEAS_COND_AXIS_NAME_INTERNAL-82 "RE_ShutterAInstallation"
*MEAS_COND_AXIS_NAME_INTERNAL-83 "RE_ShutterARamp"
*MEAS_COND_AXIS_NAME_INTERNAL-84 "RE_ShutterBInstallation"
*MEAS_COND_AXIS_NAME_INTERNAL-85 "RE_ShutterBRamp"
*MEAS_COND_AXIS_NAME_INTERNAL-86 "RE_ExtShutterCLS"
*MEAS_COND_AXIS_NAME_INTERNAL-87 "RE_ExtXrayOFF"
*MEAS_COND_AXIS_NAME_INTERNAL-88 "RE_ExtSafetyCircuit"
*MEAS_COND_AXIS_NAME_INTERNAL-89 "Version_CPU"
*MEAS_COND_AXIS_NAME_INTERNAL-9 "Ts"
*MEAS_COND_AXIS_NAME_INTERNAL-90 "Version_RS1"
*MEAS_COND_AXIS_NAME_INTERNAL-91 "Version_RS2"
*MEAS_COND_AXIS_NAME_INTERNAL-92 "Version_HV"
*MEAS_COND_AXIS_NAME_INTERNAL-93 "Version_CW"
*MEAS_COND_AXIS_NAME_INTERNAL-94 "Version_RT"
*MEAS_COND_AXIS_NAME_INTERNAL-95 "Axis_GoniometerGreaseUp"
*MEAS_COND_AXIS_NAME_INTERNAL-96 "Lens"
*MEAS_COND_AXIS_NAME_INTERNAL-97 "IncidentPrimary"
*MEAS_COND_AXIS_NAME_INTERNAL-98 "IncidentMonochromator"
*MEAS_COND_AXIS_NAME_INTERNAL-99 "ReceivingOptics"
*MEAS_COND_AXIS_NAME-0 "ThetaS"
*MEAS_COND_AXIS_NAME-1 "ThetaD"
*MEAS_COND_AXIS_NAME-10 "PrimaryGeometry"
*MEAS_COND_AXIS_NAME-100 "CounterMonochromatorKind"
*MEAS_COND_AXIS_NAME-11 "PrimaryMirrorType"
*MEAS_COND_AXIS_NAME-12 "CBOType"
*MEAS_COND_AXIS_NAME-13 "CBO-M"
*MEAS_COND_AXIS_NAME-14 "CBO"
*MEAS_COND_AXIS_NAME-15 "SelectionSlitType"
*MEAS_COND_AXIS_NAME-16 "IncidentSollerSlit"
*MEAS_COND_AXIS_NAME-17 "ISSType"
*MEAS_COND_AXIS_NAME-18 "IncidentSlitBox"
*MEAS_COND_AXIS_NAME-19 "IncidentSlitBox-_Axis"
*MEAS_COND_AXIS_NAME-2 "TwoTheta"
*MEAS_COND_AXIS_NAME-20 "SlitDS"
*MEAS_COND_AXIS_NAME-21 "Zs"
*MEAS_COND_AXIS_NAME-22 "IncidentAxdSlit"
*MEAS_COND_AXIS_NAME-23 "LLS"
*MEAS_COND_AXIS_NAME-24 "DHLSlit"
*MEAS_COND_AXIS_NAME-25 "Z"
*MEAS_COND_AXIS_NAME-26 "DirectBeamStop"
*MEAS_COND_AXIS_NAME-27 "KnifeEdge"
*MEAS_COND_AXIS_NAME-28 "Beta"
*MEAS_COND_AXIS_NAME-29 "Changer"
*MEAS_COND_AXIS_NAME-3 "Omega"
*MEAS_COND_AXIS_NAME-30 "ReceivingSlitBox1"
*MEAS_COND_AXIS_NAME-31 "ReceivingSlitBox1-_Axis"
*MEAS_COND_AXIS_NAME-32 "SlitSS"
*MEAS_COND_AXIS_NAME-33 "Zr"
*MEAS_COND_AXIS_NAME-34 "Filter"
*MEAS_COND_AXIS_NAME-35 "PSA"
*MEAS_COND_AXIS_NAME-36 "ReceivingSollerSlit"
*MEAS_COND_AXIS_NAME-37 "ReceivingSlitBox2"
*MEAS_COND_AXIS_NAME-38 "ReceivingSlitBox2-_Axis"
*MEAS_COND_AXIS_NAME-39 "SlitRS"
*MEAS_COND_AXIS_NAME-4 "TwoThetaTheta"
*MEAS_COND_AXIS_NAME-40 "ModuleSensorType"
*MEAS_COND_AXIS_NAME-41 "GainMode"
*MEAS_COND_AXIS_NAME-42 "PHA"
*MEAS_COND_AXIS_NAME-43 "DetectorBeamStop"
*MEAS_COND_AXIS_NAME-44 "DetectorFilter"
*MEAS_COND_AXIS_NAME-45 "DedicatedHolder"
*MEAS_COND_AXIS_NAME-46 "Target_TargetTime"
*MEAS_COND_AXIS_NAME-47 "Target_XrayOnTime"
*MEAS_COND_AXIS_NAME-48 "Target_HVGreaseUpTime"
*MEAS_COND_AXIS_NAME-49 "Target_IG"
*MEAS_COND_AXIS_NAME-5 "TwoThetaOmega"
*MEAS_COND_AXIS_NAME-50 "Target_GP"
*MEAS_COND_AXIS_NAME-51 "Target_FC"
*MEAS_COND_AXIS_NAME-52 "HVPS_Bias"
*MEAS_COND_AXIS_NAME-53 "HVPS_HVPSTime"
*MEAS_COND_AXIS_NAME-54 "HVPS_Type1Time"
*MEAS_COND_AXIS_NAME-55 "HVPS_Type2Time"
*MEAS_COND_AXIS_NAME-56 "HVPS_Type3Time"
*MEAS_COND_AXIS_NAME-57 "CW_IERTime"
*MEAS_COND_AXIS_NAME-58 "CW_WaterHose"
*MEAS_COND_AXIS_NAME-59 "CW_CoolingWater"
*MEAS_COND_AXIS_NAME-6 "OmegaTwoTheta"
*MEAS_COND_AXIS_NAME-60 "CW_ECTime"
*MEAS_COND_AXIS_NAME-61 "CW_Flow1"
*MEAS_COND_AXIS_NAME-62 "CW_Temperature1"
*MEAS_COND_AXIS_NAME-63 "CW_Pressure1"
*MEAS_COND_AXIS_NAME-64 "CW_PressureIn"
*MEAS_COND_AXIS_NAME-65 "CW_PressureOut"
*MEAS_COND_AXIS_NAME-66 "CW_Flow2"
*MEAS_COND_AXIS_NAME-67 "CW_Temperature2"
*MEAS_COND_AXIS_NAME-68 "CW_Pressure2"
*MEAS_COND_AXIS_NAME-69 "RE_EnclosureTemp"
*MEAS_COND_AXIS_NAME-7 "TwoThetaChi"
*MEAS_COND_AXIS_NAME-70 "RE_EnclosureHummidity"
*MEAS_COND_AXIS_NAME-71 "RE_CabinetTemp"
*MEAS_COND_AXIS_NAME-72 "RE_RPTemp"
*MEAS_COND_AXIS_NAME-73 "RE_ShutterAXrayOnTime"
*MEAS_COND_AXIS_NAME-74 "RE_ShutterATimes"
*MEAS_COND_AXIS_NAME-75 "RE_ShutterAOpenCloseTime"
*MEAS_COND_AXIS_NAME-76 "RE_ShutterACloseOpenTime"
*MEAS_COND_AXIS_NAME-77 "RE_ShutterBXrayOnTime"
*MEAS_COND_AXIS_NAME-78 "RE_ShutterBTimes"
*MEAS_COND_AXIS_NAME-79 "RE_ShutterBOpenCloseTime"
*MEAS_COND_AXIS_NAME-8 "GonioDirectBeamStop"
*MEAS_COND_AXIS_NAME-80 "RE_ShutterBCloseOpenTime"
*MEAS_COND_AXIS_NAME-81 "RE_XrayWarningRamp"
*MEAS_COND_AXIS_NAME-82 "RE_ShutterAInstallation"
*MEAS_COND_AXIS_NAME-83 "RE_ShutterARamp"
*MEAS_COND_AXIS_NAME-84 "RE_ShutterBInstallation"
*MEAS_COND_AXIS_NAME-85 "RE_ShutterBRamp"
*MEAS_COND_AXIS_NAME-86 "RE_ExtShutterCLS"
*MEAS_COND_AXIS_NAME-87 "RE_ExtXrayOFF"
*MEAS_COND_AXIS_NAME-88 "RE_ExtSafetyCircuit"
*MEAS_COND_AXIS_NAME-89 "Version_CPU"
*MEAS_COND_AXIS_NAME-9 "Ts"
*MEAS_COND_AXIS_NAME-90 "Version_RS1"
*MEAS_COND_AXIS_NAME-91 "Version_RS2"
*MEAS_COND_AXIS_NAME-92 "Version_HV"
*MEAS_COND_AXIS_NAME-93 "Version_CW"
*MEAS_COND_AXIS_NAME-94 "Version_RT"
*MEAS_COND_AXIS_NAME-95 "Axis_GoniometerGreaseUp"
*MEAS_COND_AXIS_NAME-96 "Lens"
*MEAS_COND_AXIS_NAME-97 "IncidentPrimary"
*MEAS_COND_AXIS_NAME-98 "IncidentMonochromator"
*MEAS_COND_AXIS_NAME-99 "ReceivingOptics"
*MEAS_COND_AXIS_OFFSET-0 "0.0612"
*MEAS_COND_AXIS_OFFSET-1 "0.318"
*MEAS_COND_AXIS_OFFSET-10 "0"
*MEAS_COND_AXIS_OFFSET-100 "0"
*MEAS_COND_AXIS_OFFSET-11 "0"
*MEAS_COND_AXIS_OFFSET-12 "0"
*MEAS_COND_AXIS_OFFSET-13 "0"
*MEAS_COND_AXIS_OFFSET-14 "0"
*MEAS_COND_AXIS_OFFSET-15 "0"
*MEAS_COND_AXIS_OFFSET-16 "0"
*MEAS_COND_AXIS_OFFSET-17 "0"
*MEAS_COND_AXIS_OFFSET-18 "0"
*MEAS_COND_AXIS_OFFSET-19 "0"
*MEAS_COND_AXIS_OFFSET-2 "0.3792"
*MEAS_COND_AXIS_OFFSET-20 "0"
*MEAS_COND_AXIS_OFFSET-21 "0"
*MEAS_COND_AXIS_OFFSET-22 "0"
*MEAS_COND_AXIS_OFFSET-23 "0"
*MEAS_COND_AXIS_OFFSET-24 "0"
*MEAS_COND_AXIS_OFFSET-25 "0"
*MEAS_COND_AXIS_OFFSET-26 "0"
*MEAS_COND_AXIS_OFFSET-27 "0"
*MEAS_COND_AXIS_OFFSET-28 "0"
*MEAS_COND_AXIS_OFFSET-29 "0"
*MEAS_COND_AXIS_OFFSET-3 "0.0612"
*MEAS_COND_AXIS_OFFSET-30 "0"
*MEAS_COND_AXIS_OFFSET-31 "0"
*MEAS_COND_AXIS_OFFSET-32 "0"
*MEAS_COND_AXIS_OFFSET-33 "0"
*MEAS_COND_AXIS_OFFSET-34 "0"
*MEAS_COND_AXIS_OFFSET-35 "0"
*MEAS_COND_AXIS_OFFSET-36 "0"
*MEAS_COND_AXIS_OFFSET-37 "0"
*MEAS_COND_AXIS_OFFSET-38 "0"
*MEAS_COND_AXIS_OFFSET-39 "0"
*MEAS_COND_AXIS_OFFSET-4 "0"
*MEAS_COND_AXIS_OFFSET-40 "0"
*MEAS_COND_AXIS_OFFSET-41 "0"
*MEAS_COND_AXIS_OFFSET-42 "0"
*MEAS_COND_AXIS_OFFSET-43 "0"
*MEAS_COND_AXIS_OFFSET-44 "0"
*MEAS_COND_AXIS_OFFSET-45 "0"
*MEAS_COND_AXIS_OFFSET-46 "0"
*MEAS_COND_AXIS_OFFSET-47 "0"
*MEAS_COND_AXIS_OFFSET-48 "0"
*MEAS_COND_AXIS_OFFSET-49 "0"
*MEAS_COND_AXIS_OFFSET-5 "0"
*MEAS_COND_AXIS_OFFSET-50 "0"
*MEAS_COND_AXIS_OFFSET-51 "0"
*MEAS_COND_AXIS_OFFSET-52 "0"
*MEAS_COND_AXIS_OFFSET-53 "0"
*MEAS_COND_AXIS_OFFSET-54 "0"
*MEAS_COND_AXIS_OFFSET-55 "0"
*MEAS_COND_AXIS_OFFSET-56 "0"
*MEAS_COND_AXIS_OFFSET-57 "0"
*MEAS_COND_AXIS_OFFSET-58 "0"
*MEAS_COND_AXIS_OFFSET-59 "0"
*MEAS_COND_AXIS_OFFSET-6 "0"
*MEAS_COND_AXIS_OFFSET-60 "0"
*MEAS_COND_AXIS_OFFSET-61 "0"
*MEAS_COND_AXIS_OFFSET-62 "0"
*MEAS_COND_AXIS_OFFSET-63 "0"
*MEAS_COND_AXIS_OFFSET-64 "0"
*MEAS_COND_AXIS_OFFSET-65 "0"
*MEAS_COND_AXIS_OFFSET-66 "0"
*MEAS_COND_AXIS_OFFSET-67 "0"
*MEAS_COND_AXIS_OFFSET-68 "0"
*MEAS_COND_AXIS_OFFSET-69 "0"
*MEAS_COND_AXIS_OFFSET-7 "0"
*MEAS_COND_AXIS_OFFSET-70 "0"
*MEAS_COND_AXIS_OFFSET-71 "0"
*MEAS_COND_AXIS_OFFSET-72 "0"
*MEAS_COND_AXIS_OFFSET-73 "0"
*MEAS_COND_AXIS_OFFSET-74 "0"
*MEAS_COND_AXIS_OFFSET-75 "0"
*MEAS_COND_AXIS_OFFSET-76 "0"
*MEAS_COND_AXIS_OFFSET-77 "0"
*MEAS_COND_AXIS_OFFSET-78 "0"
*MEAS_COND_AXIS_OFFSET-79 "0"
*MEAS_COND_AXIS_OFFSET-8 "0"
*MEAS_COND_AXIS_OFFSET-80 "0"
*MEAS_COND_AXIS_OFFSET-81 "0"
*MEAS_COND_AXIS_OFFSET-82 "0"
*MEAS_COND_AXIS_OFFSET-83 "0"
*MEAS_COND_AXIS_OFFSET-84 "0"
*MEAS_COND_AXIS_OFFSET-85 "0"
*MEAS_COND_AXIS_OFFSET-86 "0"
*MEAS_COND_AXIS_OFFSET-87 "0"
*MEAS_COND_AXIS_OFFSET-88 "0"
*MEAS_COND_AXIS_OFFSET-89 "0"
*MEAS_COND_AXIS_OFFSET-9 "0"
*MEAS_COND_AXIS_OFFSET-90 "0"
*MEAS_COND_AXIS_OFFSET-91 "0"
*MEAS_COND_AXIS_OFFSET-92 "0"
*MEAS_COND_AXIS_OFFSET-93 "0"
*MEAS_COND_AXIS_OFFSET-94 "0"
*MEAS_COND_AXIS_OFFSET-95 "0"
*MEAS_COND_AXIS_OFFSET-96 "0"
*MEAS_COND_AXIS_OFFSET-97 "0"
*MEAS_COND_AXIS_OFFSET-98 "0"
*MEAS_COND_AXIS_OFFSET-99 "0"
*MEAS_COND_AXIS_POSITION-0 "45.9789"
*MEAS_COND_AXIS_POSITION-1 "45.9789"
*MEAS_COND_AXIS_POSITION-10 "Right"
*MEAS_COND_AXIS_POSITION-100 "None"
*MEAS_COND_AXIS_POSITION-11 "None"
*MEAS_COND_AXIS_POSITION-12 "Type1"
*MEAS_COND_AXIS_POSITION-13 "0"
*MEAS_COND_AXIS_POSITION-14 "BB"
*MEAS_COND_AXIS_POSITION-15 "Type1"
*MEAS_COND_AXIS_POSITION-16 "Soller_slit_5.0deg"
*MEAS_COND_AXIS_POSITION-17 "Type1"
*MEAS_COND_AXIS_POSITION-18 "2/3deg"
*MEAS_COND_AXIS_POSITION-19 "2.210625"
*MEAS_COND_AXIS_POSITION-2 "91.9578"
*MEAS_COND_AXIS_POSITION-20 "2/3deg"
*MEAS_COND_AXIS_POSITION-21 "0.6000000"
*MEAS_COND_AXIS_POSITION-22 "10mm"
*MEAS_COND_AXIS_POSITION-23 "10mm"
*MEAS_COND_AXIS_POSITION-24 "10mm"
*MEAS_COND_AXIS_POSITION-25 "0.27080"
*MEAS_COND_AXIS_POSITION-26 "Out"
*MEAS_COND_AXIS_POSITION-27 "None"
*MEAS_COND_AXIS_POSITION-29 "3"
*MEAS_COND_AXIS_POSITION-3 "45.9789"
*MEAS_COND_AXIS_POSITION-30 "Open"
*MEAS_COND_AXIS_POSITION-31 "20.000000"
*MEAS_COND_AXIS_POSITION-32 "Open"
*MEAS_COND_AXIS_POSITION-33 "-0.6909375"
*MEAS_COND_AXIS_POSITION-34 "Cu_K-beta"
*MEAS_COND_AXIS_POSITION-35 "PSA_open"
*MEAS_COND_AXIS_POSITION-36 "Soller_slit_5.0deg"
*MEAS_COND_AXIS_POSITION-37 "20.100mm"
*MEAS_COND_AXIS_POSITION-38 "20.1"
*MEAS_COND_AXIS_POSITION-39 "20.100mm"
*MEAS_COND_AXIS_POSITION-4 "91.9578"
*MEAS_COND_AXIS_POSITION-40 "DC"
*MEAS_COND_AXIS_POSITION-41 "Mo-HiC"
*MEAS_COND_AXIS_POSITION-43 "None"
*MEAS_COND_AXIS_POSITION-44 "None"
*MEAS_COND_AXIS_POSITION-45 "None"
*MEAS_COND_AXIS_POSITION-5 "91.9578"
*MEAS_COND_AXIS_POSITION-6 "45.9789"
*MEAS_COND_AXIS_POSITION-7 "0.0000"
*MEAS_COND_AXIS_POSITION-8 "Out"
*MEAS_COND_AXIS_POSITION-9 "0.0000000"
*MEAS_COND_AXIS_POSITION-96 "1"
*MEAS_COND_AXIS_POSITION-97 "Standard"
*MEAS_COND_AXIS_POSITION-98 "IPS_adaptor"
*MEAS_COND_AXIS_POSITION-99 "PSA_open"
*MEAS_COND_AXIS_RESOLUTION-0 "0.0001"
*MEAS_COND_AXIS_RESOLUTION-1 "0.0001"
*MEAS_COND_AXIS_RESOLUTION-10 ""
*MEAS_COND_AXIS_RESOLUTION-11 ""
*MEAS_COND_AXIS_RESOLUTION-12 ""
*MEAS_COND_AXIS_RESOLUTION-13 "1"
*MEAS_COND_AXIS_RESOLUTION-14 ""
*MEAS_COND_AXIS_RESOLUTION-15 ""
*MEAS_COND_AXIS_RESOLUTION-16 ""
*MEAS_COND_AXIS_RESOLUTION-17 ""
*MEAS_COND_AXIS_RESOLUTION-18 "1/1600"
*MEAS_COND_AXIS_RESOLUTION-19 "1/1600"
*MEAS_COND_AXIS_RESOLUTION-2 "0.0001"
*MEAS_COND_AXIS_RESOLUTION-20 "1/1600"
*MEAS_COND_AXIS_RESOLUTION-21 "0.0003125"
*MEAS_COND_AXIS_RESOLUTION-22 ""
*MEAS_COND_AXIS_RESOLUTION-23 ""
*MEAS_COND_AXIS_RESOLUTION-24 ""
*MEAS_COND_AXIS_RESOLUTION-25 "0.00002"
*MEAS_COND_AXIS_RESOLUTION-26 ""
*MEAS_COND_AXIS_RESOLUTION-27 ""
*MEAS_COND_AXIS_RESOLUTION-28 "0.09"
*MEAS_COND_AXIS_RESOLUTION-29 "1"
*MEAS_COND_AXIS_RESOLUTION-3 "0.0001"
*MEAS_COND_AXIS_RESOLUTION-30 "1/1600"
*MEAS_COND_AXIS_RESOLUTION-31 "1/1600"
*MEAS_COND_AXIS_RESOLUTION-32 "1/1600"
*MEAS_COND_AXIS_RESOLUTION-33 "0.0003125"
*MEAS_COND_AXIS_RESOLUTION-34 ""
*MEAS_COND_AXIS_RESOLUTION-35 ""
*MEAS_COND_AXIS_RESOLUTION-36 ""
*MEAS_COND_AXIS_RESOLUTION-37 "0.1"
*MEAS_COND_AXIS_RESOLUTION-38 "0.1"
*MEAS_COND_AXIS_RESOLUTION-39 "0.1"
*MEAS_COND_AXIS_RESOLUTION-4 "0.0002"
*MEAS_COND_AXIS_RESOLUTION-40 ""
*MEAS_COND_AXIS_RESOLUTION-41 ""
*MEAS_COND_AXIS_RESOLUTION-42 "1"
*MEAS_COND_AXIS_RESOLUTION-43 ""
*MEAS_COND_AXIS_RESOLUTION-44 ""
*MEAS_COND_AXIS_RESOLUTION-45 ""
*MEAS_COND_AXIS_RESOLUTION-46 "0.01"
*MEAS_COND_AXIS_RESOLUTION-47 "0.010000"
*MEAS_COND_AXIS_RESOLUTION-48 "0.01"
*MEAS_COND_AXIS_RESOLUTION-49 "1"
*MEAS_COND_AXIS_RESOLUTION-5 "0.0002"
*MEAS_COND_AXIS_RESOLUTION-50 "1"
*MEAS_COND_AXIS_RESOLUTION-51 "0.01"
*MEAS_COND_AXIS_RESOLUTION-52 "1"
*MEAS_COND_AXIS_RESOLUTION-53 "0.01"
*MEAS_COND_AXIS_RESOLUTION-54 "0.01"
*MEAS_COND_AXIS_RESOLUTION-55 "0.01"
*MEAS_COND_AXIS_RESOLUTION-56 "0.01"
*MEAS_COND_AXIS_RESOLUTION-57 "0.010000"
*MEAS_COND_AXIS_RESOLUTION-58 "0.01"
*MEAS_COND_AXIS_RESOLUTION-59 "0.01"
*MEAS_COND_AXIS_RESOLUTION-6 "0.0001"
*MEAS_COND_AXIS_RESOLUTION-60 "1"
*MEAS_COND_AXIS_RESOLUTION-61 "0.100000"
*MEAS_COND_AXIS_RESOLUTION-62 "1.000000"
*MEAS_COND_AXIS_RESOLUTION-63 "0.010000"
*MEAS_COND_AXIS_RESOLUTION-64 "0.01"
*MEAS_COND_AXIS_RESOLUTION-65 "0.01"
*MEAS_COND_AXIS_RESOLUTION-66 "0.1"
*MEAS_COND_AXIS_RESOLUTION-67 "1"
*MEAS_COND_AXIS_RESOLUTION-68 "0.01"
*MEAS_COND_AXIS_RESOLUTION-69 "1.000000"
*MEAS_COND_AXIS_RESOLUTION-7 "0.0005"
*MEAS_COND_AXIS_RESOLUTION-70 "1"
*MEAS_COND_AXIS_RESOLUTION-71 "1.000000"
*MEAS_COND_AXIS_RESOLUTION-72 "1"
