         ID: 

    Comment: 

Scan Type: Normal
Start Angle: 15 deg.
Stop Angle: 90 deg.
Num Points: 3751
Step Size: 0.02 deg.
Datafile Res: 1600 
Scan Rate: 1.000000
Scan Mode: Continuous
Wavelength: 1.540562

Diffractometer Optics:
		Detector:
			 Type: Fixed Slits
			 X2 Configuration: No
		Tube: 
			 Type: Fixed Slits
			 X2 Configuration: No


Axis[0]
	 Selected   : no 
	 Iterative  : no 
	 Start Angle: 0.000000 
	 Stop Angle : 0.000000 
	 Step Size  : 0.000000 
	 Oscillating: no 

Axis[1]
	 Selected   : no 
	 Iterative  : no 
	 Start Angle: 0.000000 
	 Stop Angle : 0.000000 
	 Step Size  : 0.000000 
	 Oscillating: no 

Axis[2]
	 Selected   : no 
	 Iterative  : no 
	 Start Angle: 0.000000 
	 Stop Angle : 0.000000 
	 Step Size  : 0.000000 
	 Oscillating: no 

Axis[3]
	 Selected   : no 
	 Iterative  : no 
	 Start Angle: 0.000000 
	 Stop Angle : 0.000000 
	 Step Size  : 0.000000 
	 Oscillating: no 

Axis[4]
	 Selected   : no 
	 Iterative  : no 
	 Start Angle: 0.000000 
	 Stop Angle : 0.000000 
	 Step Size  : 0.000000 
	 Oscillating: no 

Axis[5]
	 Selected   : no 
	 Iterative  : no 
	 Start Angle: 0.000000 
	 Stop Angle : 0.000000 
	 Step Size  : 0.000000 
	 Oscillating: no 

Axis[6]
	 Selected   : no 
	 Iterative  : no 
	 Start Angle: 0.000000 
	 Stop Angle : 0.000000 
	 Step Size  : 0.000000 
	 Oscillating: no 

Axis[7]
	 Selected   : no 
	 Iterative  : no 
	 Start Angle: 0.000000 
	 Stop Angle : 0.000000 
	 Step Size  : 0.000000 
	 Oscillating: no 

Axis[8]
	 Selected   : no 
	 Iterative  : no 
	 Start Angle: 0.000000 
	 Stop Angle : 0.000000 
	 Step Size  : 0.000000 
	 Oscillating: no 

Axis[9]
	 Selected   : no 
	 Iterative  : no 
	 Start Angle: 0.000000 
	 Stop Angle : 0.000000 
	 Step Size  : 0.000000 
	 Oscillating: no 




	   Deg.    Counts 	   Time 	    ESD   

Range 0
  15.000	        97	    1200	     9.849
  15.020	        84	    1200	     9.165
  15.040	        89	    1200	     9.434
  15.060	        94	    1200	     9.695
  15.080	        94	    1200	     9.695
  15.100	       103	    1200	    10.149
  15.120	        96	    1200	     9.798
  15.140	       109	    1200	    10.440
  15.160	       102	    1200	    10.100
  15.180	       102	    1200	    10.100
  15.200	        99	    1200	     9.950
  15.220	        94	    1200	     9.695
  15.240	        97	    1200	     9.849
  15.260	        90	    1200	     9.487
  15.280	        91	    1200	     9.539
  15.300	        96	    1200	     9.798
  15.320	       100	    1200	    10.000
  15.340	       113	    1200	    10.630
  15.360	        92	    1200	     9.592
  15.380	        93	    1200	     9.644
  15.400	        98	    1200	     9.899
  15.420	        96	    1200	     9.798
  15.440	       102	    1200	    10.100
  15.460	        94	    1200	     9.695
  15.480	       117	    1200	    10.817
  15.500	       102	    1200	    10.100
  15.520	        84	    1200	     9.165
  15.540	        92	    1200	     9.592
  15.560	        89	    1200	     9.434
  15.580	       105	    1200	    10.247
  15.600	        89	    1200	     9.434
  15.620	        88	    1200	     9.381
  15.640	       112	    1200	    10.583
  15.660	        75	    1200	     8.660
  15.680	        93	    1200	     9.644
  15.700	       107	    1200	    10.344
  15.720	        86	    1200	     9.274
  15.740	        94	    1200	     9.695
  15.760	        93	    1200	     9.644
  15.780	       121	    1200	    11.000
  15.800	       120	    1200	    10.954
  15.820	       102	    1200	    10.100
  15.840	       112	    1200	    10.583
  15.860	        91	    1200	     9.539
  15.880	        91	    1200	     9.539
  15.900	        87	    1200	     9.327
  15.920	        76	    1200	     8.718
  15.940	        78	    1200	     8.832
  15.960	       105	    1200	    10.247
  15.980	        76	    1200	     8.718
  16.000	       104	    1200	    10.198
  16.020	       101	    1200	    10.050
  16.040	       100	    1200	    10.000
  16.060	        87	    1200	     9.327
  16.080	        97	    1200	     9.849
  16.100	       104	    1200	    10.198
  16.120	       103	    1200	    10.149
  16.140	       106	    1200	    10.296
  16.160	       100	    1200	    10.000
  16.180	       114	    1200	    10.677
  16.200	        98	    1200	     9.899
  16.220	        74	    1200	     8.602
  16.240	        98	    1200	     9.899
  16.260	        95	    1200	     9.747
  16.280	       109	    1200	    10.440
  16.300	        99	    1200	     9.950
  16.320	       102	    1200	    10.100
  16.340	        91	    1200	     9.539
  16.360	        96	    1200	     9.798
  16.380	        97	    1200	     9.849
  16.400	        98	    1200	     9.899
  16.420	        89	    1200	     9.434
  16.440	        93	    1200	     9.644
  16.460	        94	    1200	     9.695
  16.480	       110	    1200	    10.488
  16.500	        90	    1200	     9.487
  16.520	       103	    1200	    10.149
  16.540	        93	    1200	     9.644
  16.560	        95	    1200	     9.747
  16.580	        93	    1200	     9.644
  16.600	       113	    1200	    10.630
  16.620	       102	    1200	    10.100
  16.640	        85	    1200	     9.220
  16.660	       108	    1200	    10.392
  16.680	        94	    1200	     9.695
  16.700	        94	    1200	     9.695
  16.720	        99	    1200	     9.950
  16.740	       102	    1200	    10.100
  16.760	       104	    1200	    10.198
  16.780	        92	    1200	     9.592
  16.800	        84	    1200	     9.165
  16.820	        96	    1200	     9.798
  16.840	        93	    1200	     9.644
  16.860	        89	    1200	     9.434
  16.880	        89	    1200	     9.434
  16.900	        98	    1200	     9.899
  16.920	        92	    1200	     9.592
  16.940	       105	    1200	    10.247
  16.960	        98	    1200	     9.899
  16.980	       102	    1200	    10.100
  17.000	        88	    1200	     9.381
  17.020	       101	    1200	    10.050
  17.040	       124	    1200	    11.136
  17.060	        85	    1200	     9.220
  17.080	        87	    1200	     9.327
  17.100	       101	    1200	    10.050
  17.120	        87	    1200	     9.327
  17.140	        77	    1200	     8.775
  17.160	       102	    1200	    10.100
  17.180	        86	    1200	     9.274
  17.200	        95	    1200	     9.747
  17.220	        88	    1200	     9.381
  17.240	        93	    1200	     9.644
  17.260	        77	    1200	     8.775
  17.280	       104	    1200	    10.198
  17.300	        82	    1200	     9.055
  17.320	        84	    1200	     9.165
  17.340	        91	    1200	     9.539
  17.360	        96	    1200	     9.798
  17.380	        85	    1200	     9.220
  17.400	       102	    1200	    10.100
  17.420	        85	    1200	     9.220
  17.440	       109	    1200	    10.440
  17.460	       103	    1200	    10.149
  17.480	        83	    1200	     9.110
  17.500	       114	    1200	    10.677
  17.520	        87	    1200	     9.327
  17.540	        86	    1200	     9.274
  17.560	        84	    1200	     9.165
  17.580	       108	    1200	    10.392
  17.600	       113	    1200	    10.630
  17.620	        93	    1200	     9.644
  17.640	       100	    1200	    10.000
  17.660	       114	    1200	    10.677
  17.680	       102	    1200	    10.100
  17.700	       108	    1200	    10.392
  17.720	       100	    1200	    10.000
  17.740	        97	    1200	     9.849
  17.760	        78	    1200	     8.832
  17.780	        98	    1200	     9.899
  17.800	        92	    1200	     9.592
  17.820	       106	    1200	    10.296
  17.840	        81	    1200	     9.000
  17.860	       117	    1200	    10.817
  17.880	        96	    1200	     9.798
  17.900	        85	    1200	     9.220
  17.920	       110	    1200	    10.488
  17.940	        97	    1200	     9.849
  17.960	        89	    1200	     9.434
  17.980	       112	    1200	    10.583
  18.000	       100	    1200	    10.000
  18.020	       106	    1200	    10.296
  18.040	        87	    1200	     9.327
  18.060	       102	    1200	    10.100
  18.080	        89	    1200	     9.434
  18.100	        90	    1200	     9.487
  18.120	        94	    1200	     9.695
  18.140	        87	    1200	     9.327
  18.160	       103	    1200	    10.149
  18.180	       100	    1200	    10.000
  18.200	        91	    1200	     9.539
  18.220	       104	    1200	    10.198
  18.240	        91	    1200	     9.539
  18.260	        96	    1200	     9.798
  18.280	       106	    1200	    10.296
  18.300	       112	    1200	    10.583
  18.320	       113	    1200	    10.630
  18.340	        85	    1200	     9.220
  18.360	       100	    1200	    10.000
  18.380	       103	    1200	    10.149
  18.400	       101	    1200	    10.050
  18.420	       104	    1200	    10.198
  18.440	       101	    1200	    10.050
  18.460	        84	    1200	     9.165
  18.480	       109	    1200	    10.440
  18.500	        89	    1200	     9.434
  18.520	        92	    1200	     9.592
  18.540	       111	    1200	    10.536
  18.560	       106	    1200	    10.296
  18.580	       101	    1200	    10.050
  18.600	        99	    1200	     9.950
  18.620	       101	    1200	    10.050
  18.640	       107	    1200	    10.344
  18.660	        86	    1200	     9.274
  18.680	        98	    1200	     9.899
  18.700	       110	    1200	    10.488
  18.720	        96	    1200	     9.798
  18.740	        98	    1200	     9.899
  18.760	        97	    1200	     9.849
  18.780	       100	    1200	    10.000
  18.800	       105	    1200	    10.247
  18.820	        94	    1200	     9.695
  18.840	       102	    1200	    10.100
  18.860	        92	    1200	     9.592
  18.880	        91	    1200	     9.539
  18.900	        98	    1200	     9.899
  18.920	        98	    1200	     9.899
  18.940	       112	    1200	    10.583
  18.960	       103	    1200	    10.149
  18.980	        82	    1200	     9.055
  19.000	       132	    1200	    11.489
  19.020	        82	    1200	     9.055
  19.040	        78	    1200	     8.832
  19.060	        91	    1200	     9.539
  19.080	       106	    1200	    10.296
  19.100	        86	    1200	     9.274
  19.120	       105	    1200	    10.247
  19.140	       111	    1200	    10.536
  19.160	       101	    1200	    10.050
  19.180	       101	    1200	    10.050
  19.200	       105	    1200	    10.247
  19.220	        84	    1200	     9.165
  19.240	        99	    1200	     9.950
  19.260	       104	    1200	    10.198
  19.280	       112	    1200	    10.583
  19.300	       107	    1200	    10.344
  19.320	       103	    1200	    10.149
  19.340	        92	    1200	     9.592
  19.360	        93	    1200	     9.644
  19.380	        83	    1200	     9.110
  19.400	       109	    1200	    10.440
  19.420	        95	    1200	     9.747
  19.440	       110	    1200	    10.488
  19.460	       107	    1200	    10.344
  19.480	        85	    1200	     9.220
  19.500	        88	    1200	     9.381
  19.520	       105	    1200	    10.247
  19.540	       107	    1200	    10.344
  19.560	        93	    1200	     9.644
  19.580	       103	    1200	    10.149
  19.600	       110	    1200	    10.488
  19.620	       102	    1200	    10.100
  19.640	       109	    1200	    10.440
  19.660	        97	    1200	     9.849
  19.680	       111	    1200	    10.536
  19.700	       108	    1200	    10.392
  19.720	        74	    1200	     8.602
  19.740	       108	    1200	    10.392
  19.760	        96	    1200	     9.798
  19.780	        93	    1200	     9.644
  19.800	        93	    1200	     9.644
  19.820	       103	    1200	    10.149
  19.840	       101	    1200	    10.050
  19.860	       107	    1200	    10.344
  19.880	        89	    1200	     9.434
  19.900	       117	    1200	    10.817
  19.920	       105	    1200	    10.247
  19.940	       114	    1200	    10.677
  19.960	        83	    1200	     9.110
  19.980	       117	    1200	    10.817
  20.000	        99	    1200	     9.950
  20.020	       106	    1200	    10.296
  20.040	        90	    1200	     9.487
  20.060	       101	    1200	    10.050
  20.080	        96	    1200	     9.798
  20.100	       121	    1200	    11.000
  20.120	       102	    1200	    10.100
  20.140	        95	    1200	     9.747
  20.160	       118	    1200	    10.863
  20.180	        96	    1200	     9.798
  20.200	        91	    1200	     9.539
  20.220	       109	    1200	    10.440
  20.240	       103	    1200	    10.149
  20.260	       111	    1200	    10.536
  20.280	       100	    1200	    10.000
  20.300	        81	    1200	     9.000
  20.320	        91	    1200	     9.539
  20.340	       104	    1200	    10.198
  20.360	       101	    1200	    10.050
  20.380	        91	    1200	     9.539
  20.400	        92	    1200	     9.592
  20.420	        96	    1200	     9.798
  20.440	       125	    1200	    11.180
  20.460	        96	    1200	     9.798
  20.480	       109	    1200	    10.440
  20.500	        94	    1200	     9.695
  20.520	        82	    1200	     9.055
  20.540	        89	    1200	     9.434
  20.560	       115	    1200	    10.724
  20.580	       105	    1200	    10.247
  20.600	       111	    1200	    10.536
  20.620	        94	    1200	     9.695
  20.640	       109	    1200	    10.440
  20.660	        98	    1200	     9.899
  20.680	       100	    1200	    10.000
  20.700	        94	    1200	     9.695
  20.720	       104	    1200	    10.198
  20.740	       101	    1200	    10.050
  20.760	       112	    1200	    10.583
  20.780	       100	    1200	    10.000
  20.800	       103	    1200	    10.149
  20.820	       105	    1200	    10.247
  20.840	       109	    1200	    10.440
  20.860	       110	    1200	    10.488
  20.880	       111	    1200	    10.536
  20.900	        90	    1200	     9.487
  20.920	       104	    1200	    10.198
  20.940	       103	    1200	    10.149
  20.960	       110	    1200	    10.488
  20.980	       100	    1200	    10.000
  21.000	       104	    1200	    10.198
  21.020	       112	    1200	    10.583
  21.040	        99	    1200	     9.950
  21.060	        92	    1200	     9.592
  21.080	       108	    1200	    10.392
  21.100	        90	    1200	     9.487
  21.120	        92	    1200	     9.592
  21.140	       111	    1200	    10.536
  21.160	       106	    1200	    10.296
  21.180	       103	    1200	    10.149
  21.200	        92	    1200	     9.592
  21.220	        84	    1200	     9.165
  21.240	        86	    1200	     9.274
  21.260	       118	    1200	    10.863
  21.280	       105	    1200	    10.247
  21.300	        89	    1200	     9.434
  21.320	       106	    1200	    10.296
  21.340	       102	    1200	    10.100
  21.360	        97	    1200	     9.849
  21.380	       115	    1200	    10.724
  21.400	       121	    1200	    11.000
  21.420	        94	    1200	     9.695
  21.440	        90	    1200	     9.487
  21.460	       112	    1200	    10.583
  21.480	       100	    1200	    10.000
  21.500	       106	    1200	    10.296
  21.520	        99	    1200	     9.950
  21.540	        95	    1200	     9.747
  21.560	       111	    1200	    10.536
  21.580	       123	    1200	    11.091
  21.600	       112	    1200	    10.583
  21.620	       116	    1200	    10.770
  21.640	       103	    1200	    10.149
  21.660	       119	    1200	    10.909
  21.680	        91	    1200	     9.539
  21.700	       100	    1200	    10.000
  21.720	       106	    1200	    10.296
  21.740	       118	    1200	    10.863
  21.760	        89	    1200	     9.434
  21.780	       110	    1200	    10.488
  21.800	       109	    1200	    10.440
  21.820	       131	    1200	    11.446
  21.840	       116	    1200	    10.770
  21.860	       132	    1200	    11.489
  21.880	       118	    1200	    10.863
  21.900	       117	    1200	    10.817
  21.920	       117	    1200	    10.817
  21.940	        90	    1200	     9.487
  21.960	        98	    1200	     9.899
  21.980	       101	    1200	    10.050
  22.000	       111	    1200	    10.536
  22.020	       104	    1200	    10.198
  22.040	       100	    1200	    10.000
  22.060	       122	    1200	    11.045
  22.080	       105	    1200	    10.247
  22.100	       116	    1200	    10.770
  22.120	       107	    1200	    10.344
  22.140	       106	    1200	    10.296
  22.160	       118	    1200	    10.863
  22.180	       100	    1200	    10.000
  22.200	       103	    1200	    10.149
  22.220	       125	    1200	    11.180
  22.240	       113	    1200	    10.630
  22.260	       118	    1200	    10.863
  22.280	        98	    1200	     9.899
  22.300	       104	    1200	    10.198
  22.320	       114	    1200	    10.677
  22.340	       110	    1200	    10.488
  22.360	       103	    1200	    10.149
  22.380	        93	    1200	     9.644
  22.400	        90	    1200	     9.487
  22.420	       109	    1200	    10.440
  22.440	       102	    1200	    10.100
  22.460	       101	    1200	    10.050
  22.480	       104	    1200	    10.198
  22.500	       113	    1200	    10.630
  22.520	       117	    1200	    10.817
  22.540	       126	    1200	    11.225
  22.560	       113	    1200	    10.630
  22.580	       122	    1200	    11.045
  22.600	       112	    1200	    10.583
  22.620	       127	    1200	    11.269
  22.640	       126	    1200	    11.225
  22.660	       109	    1200	    10.440
  22.680	       131	    1200	    11.446
  22.700	       125	    1200	    11.180
  22.720	       107	    1200	    10.344
  22.740	       126	    1200	    11.225
  22.760	       111	    1200	    10.536
  22.780	       113	    1200	    10.630
  22.800	       119	    1200	    10.909
  22.820	       137	    1200	    11.705
  22.840	       124	    1200	    11.136
  22.860	       124	    1200	    11.136
  22.880	       131	    1200	    11.446
  22.900	       135	    1200	    11.619
  22.920	       134	    1200	    11.576
  22.940	       107	    1200	    10.344
  22.960	       138	    1200	    11.747
  22.980	       113	    1200	    10.630
  23.000	       117	    1200	    10.817
  23.020	       118	    1200	    10.863
  23.040	       122	    1200	    11.045
  23.060	       125	    1200	    11.180
  23.080	       121	    1200	    11.000
  23.100	       109	    1200	    10.440
  23.120	       122	    1200	    11.045
  23.140	       132	    1200	    11.489
  23.160	       129	    1200	    11.358
  23.180	       110	    1200	    10.488
  23.200	       100	    1200	    10.000
  23.220	       113	    1200	    10.630
  23.240	       103	    1200	    10.149
  23.260	       101	    1200	    10.050
  23.280	       109	    1200	    10.440
  23.300	       109	    1200	    10.440
  23.320	       108	    1200	    10.392
  23.340	        99	    1200	     9.950
  23.360	       111	    1200	    10.536
  23.380	        94	    1200	     9.695
  23.400	       114	    1200	    10.677
  23.420	       103	    1200	    10.149
  23.440	       110	    1200	    10.488
  23.460	       112	    1200	    10.583
  23.480	       131	    1200	    11.446
  23.500	       102	    1200	    10.100
  23.520	        85	    1200	     9.220
  23.540	       100	    1200	    10.000
  23.560	       106	    1200	    10.296
  23.580	       144	    1200	    12.000
  23.600	       103	    1200	    10.149
  23.620	       104	    1200	    10.198
  23.640	       102	    1200	    10.100
  23.660	        98	    1200	     9.899
  23.680	       105	    1200	    10.247
  23.700	        95	    1200	     9.747
  23.720	       120	    1200	    10.954
  23.740	        99	    1200	     9.950
  23.760	        92	    1200	     9.592
  23.780	       125	    1200	    11.180
  23.800	       108	    1200	    10.392
  23.820	        90	    1200	     9.487
  23.840	        97	    1200	     9.849
  23.860	        80	    1200	     8.944
  23.880	       115	    1200	    10.724
  23.900	       101	    1200	    10.050
  23.920	       106	    1200	    10.296
  23.940	        97	    1200	     9.849
  23.960	       101	    1200	    10.050
  23.980	        99	    1200	     9.950
  24.000	        85	    1200	     9.220
  24.020	       112	    1200	    10.583
  24.040	        83	    1200	     9.110
  24.060	       100	    1200	    10.000
