         ID: 

    Comment: 

Scan Type: Normal
Start Angle: 15 deg.
Stop Angle: 90 deg.
Num Points: 3751
Step Size: 0.02 deg.
Datafile Res: 1600 
Scan Rate: 1.000000
Scan Mode: Continuous
Wavelength: 1.540562

Diffractometer Optics:
		Detector:
			 Type: Fixed Slits
			 X2 Configuration: No
		Tube: 
			 Type: Fixed Slits
			 X2 Configuration: No


Axis[0]
	 Selected   : no 
	 Iterative  : no 
	 Start Angle: 0.000000 
	 Stop Angle : 0.000000 
	 Step Size  : 0.000000 
	 Oscillating: no 

Axis[1]
	 Selected   : no 
	 Iterative  : no 
	 Start Angle: 0.000000 
	 Stop Angle : 0.000000 
	 Step Size  : 0.000000 
	 Oscillating: no 

Axis[2]
	 Selected   : no 
	 Iterative  : no 
	 Start Angle: 0.000000 
	 Stop Angle : 0.000000 
	 Step Size  : 0.000000 
	 Oscillating: no 

Axis[3]
	 Selected   : no 
	 Iterative  : no 
	 Start Angle: 0.000000 
	 Stop Angle : 0.000000 
	 Step Size  : 0.000000 
	 Oscillating: no 

Axis[4]
	 Selected   : no 
	 Iterative  : no 
	 Start Angle: 0.000000 
	 Stop Angle : 0.000000 
	 Step Size  : 0.000000 
	 Oscillating: no 

Axis[5]
	 Selected   : no 
	 Iterative  : no 
	 Start Angle: 0.000000 
	 Stop Angle : 0.000000 
	 Step Size  : 0.000000 
	 Oscillating: no 

Axis[6]
	 Selected   : no 
	 Iterative  : no 
	 Start Angle: 0.000000 
	 Stop Angle : 0.000000 
	 Step Size  : 0.000000 
	 Oscillating: no 

Axis[7]
	 Selected   : no 
	 Iterative  : no 
	 Start Angle: 0.000000 
	 Stop Angle : 0.000000 
	 Step Size  : 0.000000 
	 Oscillating: no 

Axis[8]
	 Selected   : no 
	 Iterative  : no 
	 Start Angle: 0.000000 
	 Stop Angle : 0.000000 
	 Step Size  : 0.000000 
	 Oscillating: no 

Axis[9]
	 Selected   : no 
	 Iterative  : no 
	 Start Angle: 0.000000 
	 Stop Angle : 0.000000 
	 Step Size  : 0.000000 
	 Oscillating: no 




	   Deg.    Counts 	   Time 	    ESD   

Range 0
  15.000	       106	    1200	    10.296
  15.020	       109	    1200	    10.440
  15.040	        95	    1200	     9.747
  15.060	       115	    1200	    10.724
  15.080	       104	    1200	    10.198
  15.100	       105	    1200	    10.247
  15.120	       109	    1200	    10.440
  15.140	       105	    1200	    10.247
  15.160	       106	    1200	    10.296
  15.180	        97	    1200	     9.849
  15.200	        93	    1200	     9.644
  15.220	       109	    1200	    10.440
  15.240	       115	    1200	    10.724
  15.260	       123	    1200	    11.091
  15.280	        95	    1200	     9.747
  15.300	       104	    1200	    10.198
  15.320	        92	    1200	     9.592
  15.340	       108	    1200	    10.392
  15.360	        99	    1200	     9.950
  15.380	       101	    1200	    10.050
  15.400	        98	    1200	     9.899
  15.420	        80	    1200	     8.944
  15.440	       118	    1200	    10.863
  15.460	        78	    1200	     8.832
  15.480	       101	    1200	    10.050
  15.500	       109	    1200	    10.440
  15.520	        97	    1200	     9.849
  15.540	        98	    1200	     9.899
  15.560	        87	    1200	     9.327
  15.580	        99	    1200	     9.950
  15.600	        94	    1200	     9.695
  15.620	        87	    1200	     9.327
  15.640	       101	    1200	    10.050
  15.660	       116	    1200	    10.770
  15.680	        99	    1200	     9.950
  15.700	        92	    1200	     9.592
  15.720	       102	    1200	    10.100
  15.740	       101	    1200	    10.050
  15.760	        97	    1200	     9.849
  15.780	        96	    1200	     9.798
  15.800	       109	    1200	    10.440
  15.820	        84	    1200	     9.165
  15.840	       104	    1200	    10.198
  15.860	       100	    1200	    10.000
  15.880	        96	    1200	     9.798
  15.900	        97	    1200	     9.849
  15.920	        95	    1200	     9.747
  15.940	        89	    1200	     9.434
  15.960	       105	    1200	    10.247
  15.980	        88	    1200	     9.381
  16.000	       107	    1200	    10.344
  16.020	       109	    1200	    10.440
  16.040	       104	    1200	    10.198
  16.060	        97	    1200	     9.849
  16.080	        98	    1200	     9.899
  16.100	        93	    1200	     9.644
  16.120	       104	    1200	    10.198
  16.140	       106	    1200	    10.296
  16.160	        83	    1200	     9.110
  16.180	        91	    1200	     9.539
  16.200	        88	    1200	     9.381
  16.220	        96	    1200	     9.798
  16.240	       103	    1200	    10.149
  16.260	        83	    1200	     9.110
  16.280	       102	    1200	    10.100
  16.300	        93	    1200	     9.644
  16.320	        86	    1200	     9.274
  16.340	        89	    1200	     9.434
  16.360	        91	    1200	     9.539
  16.380	        81	    1200	     9.000
  16.400	       105	    1200	    10.247
  16.420	       115	    1200	    10.724
  16.440	       106	    1200	    10.296
  16.460	       111	    1200	    10.536
  16.480	        81	    1200	     9.000
  16.500	        97	    1200	     9.849
  16.520	        86	    1200	     9.274
  16.540	       112	    1200	    10.583
  16.560	       120	    1200	    10.954
  16.580	        86	    1200	     9.274
  16.600	        85	    1200	     9.220
  16.620	       104	    1200	    10.198
  16.640	        82	    1200	     9.055
  16.660	        87	    1200	     9.327
  16.680	       108	    1200	    10.392
  16.700	        92	    1200	     9.592
  16.720	       107	    1200	    10.344
  16.740	        96	    1200	     9.798
  16.760	        96	    1200	     9.798
  16.780	        96	    1200	     9.798
  16.800	       100	    1200	    10.000
  16.820	        90	    1200	     9.487
  16.840	        95	    1200	     9.747
  16.860	       104	    1200	    10.198
  16.880	        92	    1200	     9.592
  16.900	       107	    1200	    10.344
  16.920	       119	    1200	    10.909
  16.940	        93	    1200	     9.644
  16.960	       102	    1200	    10.100
  16.980	        84	    1200	     9.165
  17.000	       106	    1200	    10.296
  17.020	       117	    1200	    10.817
  17.040	       105	    1200	    10.247
  17.060	        89	    1200	     9.434
  17.080	        93	    1200	     9.644
  17.100	       100	    1200	    10.000
  17.120	        89	    1200	     9.434
  17.140	       100	    1200	    10.000
  17.160	        74	    1200	     8.602
  17.180	        99	    1200	     9.950
  17.200	        96	    1200	     9.798
  17.220	        96	    1200	     9.798
  17.240	        98	    1200	     9.899
  17.260	        96	    1200	     9.798
  17.280	        79	    1200	     8.888
  17.300	        75	    1200	     8.660
  17.320	        92	    1200	     9.592
  17.340	        84	    1200	     9.165
  17.360	        95	    1200	     9.747
  17.380	        91	    1200	     9.539
  17.400	       113	    1200	    10.630
  17.420	       102	    1200	    10.100
  17.440	        93	    1200	     9.644
  17.460	        98	    1200	     9.899
  17.480	        95	    1200	     9.747
  17.500	       103	    1200	    10.149
  17.520	       101	    1200	    10.050
  17.540	       106	    1200	    10.296
  17.560	        99	    1200	     9.950
  17.580	       113	    1200	    10.630
  17.600	       115	    1200	    10.724
  17.620	       107	    1200	    10.344
  17.640	        97	    1200	     9.849
  17.660	        88	    1200	     9.381
  17.680	       106	    1200	    10.296
  17.700	        91	    1200	     9.539
  17.720	        98	    1200	     9.899
  17.740	        99	    1200	     9.950
  17.760	       110	    1200	    10.488
  17.780	       122	    1200	    11.045
  17.800	        88	    1200	     9.381
  17.820	       109	    1200	    10.440
  17.840	        91	    1200	     9.539
  17.860	        98	    1200	     9.899
  17.880	        84	    1200	     9.165
  17.900	       105	    1200	    10.247
  17.920	        84	    1200	     9.165
  17.940	        97	    1200	     9.849
  17.960	       110	    1200	    10.488
  17.980	       102	    1200	    10.100
  18.000	        96	    1200	     9.798
  18.020	       100	    1200	    10.000
  18.040	       106	    1200	    10.296
  18.060	        94	    1200	     9.695
  18.080	       105	    1200	    10.247
  18.100	       100	    1200	    10.000
  18.120	       111	    1200	    10.536
  18.140	        95	    1200	     9.747
  18.160	        79	    1200	     8.888
  18.180	        96	    1200	     9.798
  18.200	        97	    1200	     9.849
  18.220	        87	    1200	     9.327
  18.240	        89	    1200	     9.434
  18.260	        99	    1200	     9.950
  18.280	       117	    1200	    10.817
  18.300	        94	    1200	     9.695
  18.320	        98	    1200	     9.899
  18.340	       109	    1200	    10.440
  18.360	       106	    1200	    10.296
  18.380	       101	    1200	    10.050
  18.400	       112	    1200	    10.583
  18.420	        82	    1200	     9.055
  18.440	       103	    1200	    10.149
  18.460	       121	    1200	    11.000
  18.480	       104	    1200	    10.198
  18.500	        94	    1200	     9.695
  18.520	        90	    1200	     9.487
  18.540	        91	    1200	     9.539
  18.560	        77	    1200	     8.775
  18.580	        83	    1200	     9.110
  18.600	        96	    1200	     9.798
  18.620	       101	    1200	    10.050
  18.640	        90	    1200	     9.487
  18.660	        88	    1200	     9.381
  18.680	       121	    1200	    11.000
  18.700	       114	    1200	    10.677
  18.720	       100	    1200	    10.000
  18.740	        84	    1200	     9.165
  18.760	        96	    1200	     9.798
  18.780	        73	    1200	     8.544
  18.800	        94	    1200	     9.695
  18.820	        93	    1200	     9.644
  18.840	       107	    1200	    10.344
  18.860	        99	    1200	     9.950
  18.880	       102	    1200	    10.100
  18.900	        99	    1200	     9.950
  18.920	       101	    1200	    10.050
  18.940	        79	    1200	     8.888
  18.960	        84	    1200	     9.165
  18.980	        88	    1200	     9.381
  19.000	        99	    1200	     9.950
  19.020	        90	    1200	     9.487
  19.040	       103	    1200	    10.149
  19.060	       104	    1200	    10.198
  19.080	        91	    1200	     9.539
  19.100	        94	    1200	     9.695
  19.120	        96	    1200	     9.798
  19.140	        87	    1200	     9.327
  19.160	        95	    1200	     9.747
  19.180	        92	    1200	     9.592
  19.200	        91	    1200	     9.539
  19.220	        78	    1200	     8.832
  19.240	       104	    1200	    10.198
  19.260	        99	    1200	     9.950
  19.280	        96	    1200	     9.798
  19.300	        97	    1200	     9.849
  19.320	       107	    1200	    10.344
  19.340	        81	    1200	     9.000
  19.360	        77	    1200	     8.775
  19.380	        88	    1200	     9.381
  19.400	       103	    1200	    10.149
  19.420	       105	    1200	    10.247
  19.440	        88	    1200	     9.381
  19.460	        99	    1200	     9.950
  19.480	        97	    1200	     9.849
  19.500	        90	    1200	     9.487
  19.520	        91	    1200	     9.539
  19.540	       103	    1200	    10.149
  19.560	        96	    1200	     9.798
  19.580	       120	    1200	    10.954
  19.600	        93	    1200	     9.644
  19.620	        86	    1200	     9.274
  19.640	        83	    1200	     9.110
  19.660	       101	    1200	    10.050
  19.680	       101	    1200	    10.050
  19.700	        70	    1200	     8.367
  19.720	        86	    1200	     9.274
  19.740	        86	    1200	     9.274
  19.760	        81	    1200	     9.000
  19.780	       100	    1200	    10.000
  19.800	        83	    1200	     9.110
  19.820	        91	    1200	     9.539
  19.840	        94	    1200	     9.695
  19.860	        83	    1200	     9.110
  19.880	        96	    1200	     9.798
  19.900	        94	    1200	     9.695
  19.920	        95	    1200	     9.747
  19.940	        99	    1200	     9.950
  19.960	        70	    1200	     8.367
  19.980	        97	    1200	     9.849
  20.000	        76	    1200	     8.718
  20.020	        97	    1200	     9.849
  20.040	       104	    1200	    10.198
  20.060	        99	    1200	     9.950
  20.080	        94	    1200	     9.695
  20.100	        87	    1200	     9.327
  20.120	        86	    1200	     9.274
  20.140	        97	    1200	     9.849
  20.160	        94	    1200	     9.695
  20.180	       108	    1200	    10.392
  20.200	        89	    1200	     9.434
  20.220	        90	    1200	     9.487
  20.240	        84	    1200	     9.165
  20.260	        97	    1200	     9.849
  20.280	        96	    1200	     9.798
  20.300	       101	    1200	    10.050
  20.320	        91	    1200	     9.539
  20.340	        94	    1200	     9.695
  20.360	        97	    1200	     9.849
  20.380	        88	    1200	     9.381
  20.400	       100	    1200	    10.000
  20.420	        96	    1200	     9.798
  20.440	       106	    1200	    10.296
  20.460	        92	    1200	     9.592
  20.480	        99	    1200	     9.950
  20.500	       111	    1200	    10.536
  20.520	       103	    1200	    10.149
  20.540	        84	    1200	     9.165
  20.560	        89	    1200	     9.434
  20.580	       100	    1200	    10.000
  20.600	        93	    1200	     9.644
  20.620	        97	    1200	     9.849
  20.640	        92	    1200	     9.592
  20.660	        87	    1200	     9.327
  20.680	       106	    1200	    10.296
  20.700	        94	    1200	     9.695
  20.720	        98	    1200	     9.899
  20.740	        89	    1200	     9.434
  20.760	        75	    1200	     8.660
  20.780	       100	    1200	    10.000
  20.800	        86	    1200	     9.274
  20.820	       107	    1200	    10.344
  20.840	        95	    1200	     9.747
  20.860	       106	    1200	    10.296
  20.880	       102	    1200	    10.100
  20.900	        91	    1200	     9.539
  20.920	        82	    1200	     9.055
  20.940	        91	    1200	     9.539
  20.960	        96	    1200	     9.798
  20.980	       101	    1200	    10.050
  21.000	        99	    1200	     9.950
  21.020	       110	    1200	    10.488
  21.040	       103	    1200	    10.149
  21.060	        93	    1200	     9.644
  21.080	        97	    1200	     9.849
  21.100	        92	    1200	     9.592
  21.120	        90	    1200	     9.487
  21.140	        85	    1200	     9.220
  21.160	       105	    1200	    10.247
  21.180	        90	    1200	     9.487
  21.200	        99	    1200	     9.950
  21.220	        85	    1200	     9.220
  21.240	        91	    1200	     9.539
  21.260	        92	    1200	     9.592
  21.280	        97	    1200	     9.849
  21.300	        96	    1200	     9.798
  21.320	       108	    1200	    10.392
  21.340	       106	    1200	    10.296
  21.360	       108	    1200	    10.392
  21.380	        94	    1200	     9.695
  21.400	       102	    1200	    10.100
  21.420	        99	    1200	     9.950
  21.440	       101	    1200	    10.050
  21.460	        83	    1200	     9.110
  21.480	       110	    1200	    10.488
  21.500	       100	    1200	    10.000
  21.520	        83	    1200	     9.110
  21.540	        90	    1200	     9.487
  21.560	        80	    1200	     8.944
  21.580	        90	    1200	     9.487
  21.600	        95	    1200	     9.747
  21.620	        82	    1200	     9.055
  21.640	        90	    1200	     9.487
  21.660	        92	    1200	     9.592
  21.680	       121	    1200	    11.000
  21.700	        93	    1200	     9.644
  21.720	        99	    1200	     9.950
  21.740	        99	    1200	     9.950
  21.760	       104	    1200	    10.198
  21.780	       106	    1200	    10.296
  21.800	        96	    1200	     9.798
  21.820	        97	    1200	     9.849
  21.840	        92	    1200	     9.592
  21.860	        83	    1200	     9.110
  21.880	        82	    1200	     9.055
  21.900	        99	    1200	     9.950
  21.920	        88	    1200	     9.381
  21.940	        92	    1200	     9.592
  21.960	       114	    1200	    10.677
  21.980	       106	    1200	    10.296
  22.000	       103	    1200	    10.149
  22.020	       110	    1200	    10.488
  22.040	       105	    1200	    10.247
  22.060	        85	    1200	     9.220
  22.080	        86	    1200	     9.274
  22.100	       101	    1200	    10.050
  22.120	       101	    1200	    10.050
  22.140	        83	    1200	     9.110
  22.160	       101	    1200	    10.050
  22.180	        87	    1200	     9.327
  22.200	        91	    1200	     9.539
  22.220	       103	    1200	    10.149
  22.240	       119	    1200	    10.909
  22.260	       101	    1200	    10.050
  22.280	       109	    1200	    10.440
  22.300	       114	    1200	    10.677
  22.320	       103	    1200	    10.149
  22.340	       112	    1200	    10.583
  22.360	       102	    1200	    10.100
  22.380	        90	    1200	     9.487
  22.400	       112	    1200	    10.583
  22.420	       125	    1200	    11.180
  22.440	       118	    1200	    10.863
  22.460	       111	    1200	    10.536
  22.480	       137	    1200	    11.705
  22.500	       126	    1200	    11.225
  22.520	       143	    1200	    11.958
  22.540	       137	    1200	    11.705
  22.560	       146	    1200	    12.083
  22.580	       133	    1200	    11.533
  22.600	       121	    1200	    11.000
  22.620	       110	    1200	    10.488
  22.640	       111	    1200	    10.536
  22.660	       118	    1200	    10.863
  22.680	        86	    1200	     9.274
  22.700	       103	    1200	    10.149
  22.720	        95	    1200	     9.747
  22.740	        91	    1200	     9.539
  22.760	       101	    1200	    10.050
  22.780	        86	    1200	     9.274
  22.800	       107	    1200	    10.344
  22.820	        99	    1200	     9.950
  22.840	        95	    1200	     9.747
  22.860	        97	    1200	     9.849
  22.880	        92	    1200	     9.592
  22.900	        96	    1200	     9.798
  22.920	        94	    1200	     9.695
  22.940	       109	    1200	    10.440
  22.960	       100	    1200	    10.000
  22.980	       115	    1200	    10.724
  23.000	        85	    1200	     9.220
  23.020	       105	    1200	    10.247
  23.040	        88	    1200	     9.381
  23.060	        79	    1200	     8.888
  23.080	       108	    1200	    10.392
  23.100	        99	    1200	     9.950
  23.120	        86	    1200	     9.274
  23.140	        95	    1200	     9.747
  23.160	        86	    1200	     9.274
  23.180	        85	    1200	     9.220
  23.200	        79	    1200	     8.888
  23.220	       101	    1200	    10.050
  23.240	        73	    1200	     8.544
  23.260	        94	    1200	     9.695
  23.280	        98	    1200	     9.899
  23.300	       102	    1200	    10.100
  23.320	       105	    1200	    10.247
  23.340	        93	    1200	     9.644
  23.360	        92	    1200	     9.592
  23.380	        87	    1200	     9.327
  23.400	       106	    1200	    10.296
  23.420	        91	    1200	     9.539
  23.440	        94	    1200	     9.695
  23.460	        80	    1200	     8.944
  23.480	        91	    1200	     9.539
  23.500	        78	    1200	     8.832
  23.520	        99	    1200	     9.950
  23.540	        87	    1200	     9.327
  23.560	        81	    1200	     9.000
  23.580	        94	    1200	     9.695
  23.600	        97	    1200	     9.849
  23.620	        86	    1200	     9.274
  23.640	        94	    1200	     9.695
  23.660	        80	    1200	     8.944
  23.680	        96	    1200	     9.798
  23.700	        87	    1200	     9.327
  23.720	        88	    1200	     9.381
  23.740	        92	    1200	     9.592
  23.760	        88	    1200	     9.381
  23.780	       105	    1200	    10.247
  23.800	       106	    1200	    10.296
  23.820	        74	    1200	     8.602
  23.840	        86	    1200	     9.274
  23.860	        83	    1200	     9.110
  23.880	        95	    1200	     9.747
  23.900	        83	    1200	     9.110
  23.920	       106	    1200	    10.296
  23.940	        78	    1200	     8.832
  23.960	        89	    1200	     9.434
  23.980	       117	    1200	    10.817
  24.000	       106	    1200	    10.296
  24.020	       108	    1200	    10.392
  24.040	        85	    1200	     9.220
  24.060	       100	    1200	    10.000
