         ID: 

    Comment: 

Scan Type: Normal
Start Angle: 15 deg.
Stop Angle: 90 deg.
Num Points: 3751
Step Size: 0.02 deg.
Datafile Res: 1600 
Scan Rate: 1.000000
Scan Mode: Continuous
Wavelength: 1.540562

Diffractometer Optics:
		Detector:
			 Type: Fixed Slits
			 X2 Configuration: No
		Tube: 
			 Type: Fixed Slits
			 X2 Configuration: No


Axis[0]
	 Selected   : no 
	 Iterative  : no 
	 Start Angle: 0.000000 
	 Stop Angle : 0.000000 
	 Step Size  : 0.000000 
	 Oscillating: no 

Axis[1]
	 Selected   : no 
	 Iterative  : no 
	 Start Angle: 0.000000 
	 Stop Angle : 0.000000 
	 Step Size  : 0.000000 
	 Oscillating: no 

Axis[2]
	 Selected   : no 
	 Iterative  : no 
	 Start Angle: 0.000000 
	 Stop Angle : 0.000000 
	 Step Size  : 0.000000 
	 Oscillating: no 

Axis[3]
	 Selected   : no 
	 Iterative  : no 
	 Start Angle: 0.000000 
	 Stop Angle : 0.000000 
	 Step Size  : 0.000000 
	 Oscillating: no 

Axis[4]
	 Selected   : no 
	 Iterative  : no 
	 Start Angle: 0.000000 
	 Stop Angle : 0.000000 
	 Step Size  : 0.000000 
	 Oscillating: no 

Axis[5]
	 Selected   : no 
	 Iterative  : no 
	 Start Angle: 0.000000 
	 Stop Angle : 0.000000 
	 Step Size  : 0.000000 
	 Oscillating: no 

Axis[6]
	 Selected   : no 
	 Iterative  : no 
	 Start Angle: 0.000000 
	 Stop Angle : 0.000000 
	 Step Size  : 0.000000 
	 Oscillating: no 

Axis[7]
	 Selected   : no 
	 Iterative  : no 
	 Start Angle: 0.000000 
	 Stop Angle : 0.000000 
	 Step Size  : 0.000000 
	 Oscillating: no 

Axis[8]
	 Selected   : no 
	 Iterative  : no 
	 Start Angle: 0.000000 
	 Stop Angle : 0.000000 
	 Step Size  : 0.000000 
	 Oscillating: no 

Axis[9]
	 Selected   : no 
	 Iterative  : no 
	 Start Angle: 0.000000 
	 Stop Angle : 0.000000 
	 Step Size  : 0.000000 
	 Oscillating: no 




	   Deg.    Counts 	   Time 	    ESD   

Range 0
  15.000	        96	    1200	     9.798
  15.020	        99	    1200	     9.950
  15.040	       105	    1200	    10.247
  15.060	        99	    1200	     9.950
  15.080	       126	    1200	    11.225
  15.100	       111	    1200	    10.536
  15.120	       123	    1200	    11.091
  15.140	       112	    1200	    10.583
  15.160	        96	    1200	     9.798
  15.180	        98	    1200	     9.899
  15.200	       106	    1200	    10.296
  15.220	        96	    1200	     9.798
  15.240	       117	    1200	    10.817
  15.260	       114	    1200	    10.677
  15.280	       122	    1200	    11.045
  15.300	        99	    1200	     9.950
  15.320	       109	    1200	    10.440
  15.340	        97	    1200	     9.849
  15.360	       104	    1200	    10.198
  15.380	       119	    1200	    10.909
  15.400	       104	    1200	    10.198
  15.420	       107	    1200	    10.344
  15.440	        94	    1200	     9.695
  15.460	       116	    1200	    10.770
  15.480	       117	    1200	    10.817
  15.500	       100	    1200	    10.000
  15.520	       109	    1200	    10.440
  15.540	       107	    1200	    10.344
  15.560	       103	    1200	    10.149
  15.580	        92	    1200	     9.592
  15.600	       103	    1200	    10.149
  15.620	       102	    1200	    10.100
  15.640	       104	    1200	    10.198
  15.660	       110	    1200	    10.488
  15.680	       115	    1200	    10.724
  15.700	       117	    1200	    10.817
  15.720	        98	    1200	     9.899
  15.740	       109	    1200	    10.440
  15.760	       100	    1200	    10.000
  15.780	       110	    1200	    10.488
  15.800	       100	    1200	    10.000
  15.820	        85	    1200	     9.220
  15.840	        93	    1200	     9.644
  15.860	       121	    1200	    11.000
  15.880	       104	    1200	    10.198
  15.900	       102	    1200	    10.100
  15.920	        92	    1200	     9.592
  15.940	        90	    1200	     9.487
  15.960	       110	    1200	    10.488
  15.980	        90	    1200	     9.487
  16.000	        93	    1200	     9.644
  16.020	       106	    1200	    10.296
  16.040	        94	    1200	     9.695
  16.060	        96	    1200	     9.798
  16.080	        98	    1200	     9.899
  16.100	       104	    1200	    10.198
  16.120	       111	    1200	    10.536
  16.140	       110	    1200	    10.488
  16.160	        97	    1200	     9.849
  16.180	        90	    1200	     9.487
  16.200	       108	    1200	    10.392
  16.220	        69	    1200	     8.307
  16.240	       100	    1200	    10.000
  16.260	        93	    1200	     9.644
  16.280	        92	    1200	     9.592
  16.300	        98	    1200	     9.899
  16.320	       111	    1200	    10.536
  16.340	       118	    1200	    10.863
  16.360	        93	    1200	     9.644
  16.380	        99	    1200	     9.950
  16.400	        95	    1200	     9.747
  16.420	        97	    1200	     9.849
  16.440	       119	    1200	    10.909
  16.460	        97	    1200	     9.849
  16.480	        88	    1200	     9.381
  16.500	       100	    1200	    10.000
  16.520	        93	    1200	     9.644
  16.540	        98	    1200	     9.899
  16.560	        85	    1200	     9.220
  16.580	       107	    1200	    10.344
  16.600	       119	    1200	    10.909
  16.620	        97	    1200	     9.849
  16.640	       114	    1200	    10.677
  16.660	       112	    1200	    10.583
  16.680	        84	    1200	     9.165
  16.700	       109	    1200	    10.440
  16.720	        95	    1200	     9.747
  16.740	       100	    1200	    10.000
  16.760	       104	    1200	    10.198
  16.780	       100	    1200	    10.000
  16.800	       121	    1200	    11.000
  16.820	        96	    1200	     9.798
  16.840	        79	    1200	     8.888
  16.860	       101	    1200	    10.050
  16.880	       102	    1200	    10.100
  16.900	        95	    1200	     9.747
  16.920	        96	    1200	     9.798
  16.940	       112	    1200	    10.583
  16.960	       102	    1200	    10.100
  16.980	       100	    1200	    10.000
  17.000	        95	    1200	     9.747
  17.020	       105	    1200	    10.247
  17.040	       106	    1200	    10.296
  17.060	       103	    1200	    10.149
  17.080	        98	    1200	     9.899
  17.100	        96	    1200	     9.798
  17.120	        98	    1200	     9.899
  17.140	        83	    1200	     9.110
  17.160	        98	    1200	     9.899
  17.180	        86	    1200	     9.274
  17.200	        81	    1200	     9.000
  17.220	       103	    1200	    10.149
  17.240	        99	    1200	     9.950
  17.260	        98	    1200	     9.899
  17.280	        96	    1200	     9.798
  17.300	        89	    1200	     9.434
  17.320	        94	    1200	     9.695
  17.340	        89	    1200	     9.434
  17.360	       100	    1200	    10.000
  17.380	        95	    1200	     9.747
  17.400	       114	    1200	    10.677
  17.420	        90	    1200	     9.487
  17.440	        96	    1200	     9.798
  17.460	        97	    1200	     9.849
  17.480	        99	    1200	     9.950
  17.500	        85	    1200	     9.220
  17.520	        89	    1200	     9.434
  17.540	        98	    1200	     9.899
  17.560	       104	    1200	    10.198
  17.580	       102	    1200	    10.100
  17.600	        92	    1200	     9.592
  17.620	        97	    1200	     9.849
  17.640	       110	    1200	    10.488
  17.660	        95	    1200	     9.747
  17.680	       103	    1200	    10.149
  17.700	        96	    1200	     9.798
  17.720	        87	    1200	     9.327
  17.740	       113	    1200	    10.630
  17.760	       106	    1200	    10.296
  17.780	        85	    1200	     9.220
  17.800	       123	    1200	    11.091
  17.820	        87	    1200	     9.327
  17.840	       114	    1200	    10.677
  17.860	        90	    1200	     9.487
  17.880	       100	    1200	    10.000
  17.900	        97	    1200	     9.849
  17.920	       104	    1200	    10.198
  17.940	       103	    1200	    10.149
  17.960	        73	    1200	     8.544
  17.980	        89	    1200	     9.434
  18.000	       101	    1200	    10.050
  18.020	        94	    1200	     9.695
  18.040	        88	    1200	     9.381
  18.060	       111	    1200	    10.536
  18.080	        99	    1200	     9.950
  18.100	        89	    1200	     9.434
  18.120	       108	    1200	    10.392
  18.140	        82	    1200	     9.055
  18.160	       105	    1200	    10.247
  18.180	        91	    1200	     9.539
  18.200	        95	    1200	     9.747
  18.220	        92	    1200	     9.592
  18.240	       118	    1200	    10.863
  18.260	       114	    1200	    10.677
  18.280	       104	    1200	    10.198
  18.300	       100	    1200	    10.000
  18.320	        94	    1200	     9.695
  18.340	       108	    1200	    10.392
  18.360	        83	    1200	     9.110
  18.380	        90	    1200	     9.487
  18.400	        86	    1200	     9.274
  18.420	       108	    1200	    10.392
  18.440	       109	    1200	    10.440
  18.460	        91	    1200	     9.539
  18.480	        96	    1200	     9.798
  18.500	       115	    1200	    10.724
  18.520	       113	    1200	    10.630
  18.540	        85	    1200	     9.220
  18.560	       100	    1200	    10.000
  18.580	       116	    1200	    10.770
  18.600	       102	    1200	    10.100
  18.620	        98	    1200	     9.899
  18.640	       110	    1200	    10.488
  18.660	       110	    1200	    10.488
  18.680	        95	    1200	     9.747
  18.700	        86	    1200	     9.274
  18.720	       110	    1200	    10.488
  18.740	        87	    1200	     9.327
  18.760	       110	    1200	    10.488
  18.780	       115	    1200	    10.724
  18.800	        88	    1200	     9.381
  18.820	        92	    1200	     9.592
  18.840	       104	    1200	    10.198
  18.860	       100	    1200	    10.000
  18.880	       106	    1200	    10.296
  18.900	        84	    1200	     9.165
  18.920	        94	    1200	     9.695
  18.940	       122	    1200	    11.045
  18.960	        87	    1200	     9.327
  18.980	       102	    1200	    10.100
  19.000	        93	    1200	     9.644
  19.020	       110	    1200	    10.488
  19.040	       104	    1200	    10.198
  19.060	       104	    1200	    10.198
  19.080	       103	    1200	    10.149
  19.100	       110	    1200	    10.488
  19.120	       109	    1200	    10.440
  19.140	        95	    1200	     9.747
  19.160	        93	    1200	     9.644
  19.180	       106	    1200	    10.296
  19.200	        99	    1200	     9.950
  19.220	        99	    1200	     9.950
  19.240	       102	    1200	    10.100
  19.260	       100	    1200	    10.000
  19.280	        98	    1200	     9.899
  19.300	       100	    1200	    10.000
  19.320	       108	    1200	    10.392
  19.340	        94	    1200	     9.695
  19.360	        81	    1200	     9.000
  19.380	       111	    1200	    10.536
  19.400	        97	    1200	     9.849
  19.420	        91	    1200	     9.539
  19.440	        93	    1200	     9.644
  19.460	       103	    1200	    10.149
  19.480	       109	    1200	    10.440
  19.500	       107	    1200	    10.344
  19.520	        98	    1200	     9.899
  19.540	       117	    1200	    10.817
  19.560	        94	    1200	     9.695
  19.580	       103	    1200	    10.149
  19.600	        92	    1200	     9.592
  19.620	       100	    1200	    10.000
  19.640	       104	    1200	    10.198
  19.660	        91	    1200	     9.539
  19.680	        76	    1200	     8.718
  19.700	        98	    1200	     9.899
  19.720	        97	    1200	     9.849
  19.740	        96	    1200	     9.798
  19.760	        98	    1200	     9.899
  19.780	       102	    1200	    10.100
  19.800	        97	    1200	     9.849
  19.820	        90	    1200	     9.487
  19.840	       105	    1200	    10.247
  19.860	        96	    1200	     9.798
  19.880	       111	    1200	    10.536
  19.900	        92	    1200	     9.592
  19.920	       110	    1200	    10.488
  19.940	       104	    1200	    10.198
  19.960	        93	    1200	     9.644
  19.980	        90	    1200	     9.487
  20.000	       103	    1200	    10.149
  20.020	       101	    1200	    10.050
  20.040	        93	    1200	     9.644
  20.060	       100	    1200	    10.000
  20.080	        91	    1200	     9.539
  20.100	       105	    1200	    10.247
  20.120	       105	    1200	    10.247
  20.140	        95	    1200	     9.747
  20.160	        98	    1200	     9.899
  20.180	       101	    1200	    10.050
  20.200	       122	    1200	    11.045
  20.220	       107	    1200	    10.344
  20.240	        86	    1200	     9.274
  20.260	        89	    1200	     9.434
  20.280	       109	    1200	    10.440
  20.300	        92	    1200	     9.592
  20.320	       104	    1200	    10.198
  20.340	        86	    1200	     9.274
  20.360	        94	    1200	     9.695
  20.380	       114	    1200	    10.677
  20.400	       100	    1200	    10.000
  20.420	       100	    1200	    10.000
  20.440	       106	    1200	    10.296
  20.460	       100	    1200	    10.000
  20.480	        90	    1200	     9.487
  20.500	        93	    1200	     9.644
  20.520	       109	    1200	    10.440
  20.540	       101	    1200	    10.050
  20.560	        92	    1200	     9.592
  20.580	        99	    1200	     9.950
  20.600	        93	    1200	     9.644
  20.620	        94	    1200	     9.695
  20.640	        92	    1200	     9.592
  20.660	        96	    1200	     9.798
  20.680	       120	    1200	    10.954
  20.700	       104	    1200	    10.198
  20.720	        97	    1200	     9.849
  20.740	        99	    1200	     9.950
  20.760	        96	    1200	     9.798
  20.780	        79	    1200	     8.888
  20.800	       110	    1200	    10.488
  20.820	       106	    1200	    10.296
  20.840	        94	    1200	     9.695
  20.860	       115	    1200	    10.724
  20.880	        79	    1200	     8.888
  20.900	       105	    1200	    10.247
  20.920	        94	    1200	     9.695
  20.940	        89	    1200	     9.434
  20.960	        92	    1200	     9.592
  20.980	       105	    1200	    10.247
  21.000	       107	    1200	    10.344
  21.020	       124	    1200	    11.136
  21.040	        93	    1200	     9.644
  21.060	        92	    1200	     9.592
  21.080	       120	    1200	    10.954
  21.100	       103	    1200	    10.149
  21.120	       116	    1200	    10.770
  21.140	        73	    1200	     8.544
  21.160	        86	    1200	     9.274
  21.180	       103	    1200	    10.149
  21.200	        92	    1200	     9.592
  21.220	       113	    1200	    10.630
  21.240	       102	    1200	    10.100
  21.260	        87	    1200	     9.327
  21.280	       109	    1200	    10.440
  21.300	        99	    1200	     9.950
  21.320	        97	    1200	     9.849
  21.340	        90	    1200	     9.487
  21.360	       103	    1200	    10.149
  21.380	       112	    1200	    10.583
  21.400	       114	    1200	    10.677
  21.420	        90	    1200	     9.487
  21.440	        89	    1200	     9.434
  21.460	        92	    1200	     9.592
  21.480	        97	    1200	     9.849
  21.500	        95	    1200	     9.747
  21.520	        88	    1200	     9.381
  21.540	        97	    1200	     9.849
  21.560	       100	    1200	    10.000
  21.580	        97	    1200	     9.849
  21.600	        86	    1200	     9.274
  21.620	        87	    1200	     9.327
  21.640	        71	    1200	     8.426
  21.660	       114	    1200	    10.677
  21.680	       102	    1200	    10.100
  21.700	        94	    1200	     9.695
  21.720	       105	    1200	    10.247
  21.740	        94	    1200	     9.695
  21.760	       108	    1200	    10.392
  21.780	       106	    1200	    10.296
  21.800	       109	    1200	    10.440
  21.820	        94	    1200	     9.695
  21.840	        97	    1200	     9.849
  21.860	        85	    1200	     9.220
  21.880	        95	    1200	     9.747
  21.900	        97	    1200	     9.849
  21.920	       115	    1200	    10.724
  21.940	       113	    1200	    10.630
  21.960	        95	    1200	     9.747
  21.980	       100	    1200	    10.000
  22.000	        89	    1200	     9.434
  22.020	       106	    1200	    10.296
  22.040	        97	    1200	     9.849
  22.060	        85	    1200	     9.220
  22.080	        84	    1200	     9.165
  22.100	        91	    1200	     9.539
  22.120	        86	    1200	     9.274
  22.140	        93	    1200	     9.644
  22.160	       101	    1200	    10.050
  22.180	        84	    1200	     9.165
  22.200	       107	    1200	    10.344
  22.220	       104	    1200	    10.198
  22.240	        88	    1200	     9.381
  22.260	        99	    1200	     9.950
  22.280	        90	    1200	     9.487
  22.300	       103	    1200	    10.149
  22.320	       105	    1200	    10.247
  22.340	       103	    1200	    10.149
  22.360	        91	    1200	     9.539
  22.380	       101	    1200	    10.050
  22.400	       106	    1200	    10.296
  22.420	        85	    1200	     9.220
  22.440	        97	    1200	     9.849
  22.460	       115	    1200	    10.724
  22.480	        85	    1200	     9.220
  22.500	        84	    1200	     9.165
  22.520	       109	    1200	    10.440
  22.540	        92	    1200	     9.592
  22.560	       109	    1200	    10.440
  22.580	        87	    1200	     9.327
  22.600	        92	    1200	     9.592
  22.620	        87	    1200	     9.327
  22.640	       116	    1200	    10.770
  22.660	       102	    1200	    10.100
  22.680	       130	    1200	    11.402
  22.700	       116	    1200	    10.770
  22.720	       117	    1200	    10.817
  22.740	       153	    1200	    12.369
  22.760	       125	    1200	    11.180
  22.780	       118	    1200	    10.863
  22.800	       130	    1200	    11.402
  22.820	       135	    1200	    11.619
  22.840	       118	    1200	    10.863
  22.860	       121	    1200	    11.000
  22.880	       105	    1200	    10.247
  22.900	        92	    1200	     9.592
  22.920	       106	    1200	    10.296
  22.940	       127	    1200	    11.269
  22.960	       100	    1200	    10.000
  22.980	        89	    1200	     9.434
  23.000	        83	    1200	     9.110
  23.020	       105	    1200	    10.247
  23.040	        93	    1200	     9.644
  23.060	        89	    1200	     9.434
  23.080	        85	    1200	     9.220
  23.100	        92	    1200	     9.592
  23.120	        96	    1200	     9.798
  23.140	       103	    1200	    10.149
  23.160	        95	    1200	     9.747
  23.180	        97	    1200	     9.849
  23.200	        96	    1200	     9.798
  23.220	        89	    1200	     9.434
  23.240	        71	    1200	     8.426
  23.260	       102	    1200	    10.100
  23.280	       104	    1200	    10.198
  23.300	        99	    1200	     9.950
  23.320	        99	    1200	     9.950
  23.340	        93	    1200	     9.644
  23.360	        85	    1200	     9.220
  23.380	       110	    1200	    10.488
  23.400	        82	    1200	     9.055
  23.420	        88	    1200	     9.381
  23.440	       101	    1200	    10.050
  23.460	        94	    1200	     9.695
  23.480	        85	    1200	     9.220
  23.500	       113	    1200	    10.630
  23.520	        98	    1200	     9.899
  23.540	        95	    1200	     9.747
  23.560	        87	    1200	     9.327
  23.580	        86	    1200	     9.274
  23.600	        96	    1200	     9.798
  23.620	        84	    1200	     9.165
  23.640	        81	    1200	     9.000
  23.660	       101	    1200	    10.050
  23.680	        99	    1200	     9.950
  23.700	        83	    1200	     9.110
  23.720	        86	    1200	     9.274
  23.740	        88	    1200	     9.381
  23.760	       108	    1200	    10.392
  23.780	        91	    1200	     9.539
  23.800	        88	    1200	     9.381
  23.820	        93	    1200	     9.644
  23.840	        91	    1200	     9.539
  23.860	        85	    1200	     9.220
  23.880	        90	    1200	     9.487
  23.900	        83	    1200	     9.110
  23.920	        86	    1200	     9.274
  23.940	        85	    1200	     9.220
  23.960	       101	    1200	    10.050
  23.980	        96	    1200	     9.798
  24.000	        97	    1200	     9.849
  24.020	        96	    1200	     9.798
  24.040	       103	    1200	    10.149
  24.060	        89	    1200	     9.434
