         ID: 

    Comment: 

Scan Type: Normal
Start Angle: 15 deg.
Stop Angle: 90 deg.
Num Points: 3751
Step Size: 0.02 deg.
Datafile Res: 1600 
Scan Rate: 1.000000
Scan Mode: Continuous
Wavelength: 1.540562

Diffractometer Optics:
		Detector:
			 Type: Fixed Slits
			 X2 Configuration: No
		Tube: 
			 Type: Fixed Slits
			 X2 Configuration: No


Axis[0]
	 Selected   : no 
	 Iterative  : no 
	 Start Angle: 0.000000 
	 Stop Angle : 0.000000 
	 Step Size  : 0.000000 
	 Oscillating: no 

Axis[1]
	 Selected   : no 
	 Iterative  : no 
	 Start Angle: 0.000000 
	 Stop Angle : 0.000000 
	 Step Size  : 0.000000 
	 Oscillating: no 

Axis[2]
	 Selected   : no 
	 Iterative  : no 
	 Start Angle: 0.000000 
	 Stop Angle : 0.000000 
	 Step Size  : 0.000000 
	 Oscillating: no 

Axis[3]
	 Selected   : no 
	 Iterative  : no 
	 Start Angle: 0.000000 
	 Stop Angle : 0.000000 
	 Step Size  : 0.000000 
	 Oscillating: no 

Axis[4]
	 Selected   : no 
	 Iterative  : no 
	 Start Angle: 0.000000 
	 Stop Angle : 0.000000 
	 Step Size  : 0.000000 
	 Oscillating: no 

Axis[5]
	 Selected   : no 
	 Iterative  : no 
	 Start Angle: 0.000000 
	 Stop Angle : 0.000000 
	 Step Size  : 0.000000 
	 Oscillating: no 

Axis[6]
	 Selected   : no 
	 Iterative  : no 
	 Start Angle: 0.000000 
	 Stop Angle : 0.000000 
	 Step Size  : 0.000000 
	 Oscillating: no 

Axis[7]
	 Selected   : no 
	 Iterative  : no 
	 Start Angle: 0.000000 
	 Stop Angle : 0.000000 
	 Step Size  : 0.000000 
	 Oscillating: no 

Axis[8]
	 Selected   : no 
	 Iterative  : no 
	 Start Angle: 0.000000 
	 Stop Angle : 0.000000 
	 Step Size  : 0.000000 
	 Oscillating: no 

Axis[9]
	 Selected   : no 
	 Iterative  : no 
	 Start Angle: 0.000000 
	 Stop Angle : 0.000000 
	 Step Size  : 0.000000 
	 Oscillating: no 




	   Deg.    Counts 	   Time 	    ESD   

Range 0
  15.000	       117	    1200	    10.817
  15.020	       106	    1200	    10.296
  15.040	       100	    1200	    10.000
  15.060	       102	    1200	    10.100
  15.080	       114	    1200	    10.677
  15.100	       119	    1200	    10.909
  15.120	       107	    1200	    10.344
  15.140	       115	    1200	    10.724
  15.160	       114	    1200	    10.677
  15.180	       124	    1200	    11.136
  15.200	       117	    1200	    10.817
  15.220	       114	    1200	    10.677
  15.240	       118	    1200	    10.863
  15.260	       108	    1200	    10.392
  15.280	        98	    1200	     9.899
  15.300	       112	    1200	    10.583
  15.320	       113	    1200	    10.630
  15.340	        97	    1200	     9.849
  15.360	       107	    1200	    10.344
  15.380	        99	    1200	     9.950
  15.400	       110	    1200	    10.488
  15.420	       120	    1200	    10.954
  15.440	       124	    1200	    11.136
  15.460	       123	    1200	    11.091
  15.480	        93	    1200	     9.644
  15.500	       120	    1200	    10.954
  15.520	        91	    1200	     9.539
  15.540	        96	    1200	     9.798
  15.560	       102	    1200	    10.100
  15.580	       104	    1200	    10.198
  15.600	       119	    1200	    10.909
  15.620	       108	    1200	    10.392
  15.640	       108	    1200	    10.392
  15.660	       119	    1200	    10.909
  15.680	       107	    1200	    10.344
  15.700	       104	    1200	    10.198
  15.720	       110	    1200	    10.488
  15.740	       103	    1200	    10.149
  15.760	       104	    1200	    10.198
  15.780	       109	    1200	    10.440
  15.800	       117	    1200	    10.817
  15.820	       128	    1200	    11.314
  15.840	       106	    1200	    10.296
  15.860	       129	    1200	    11.358
  15.880	       115	    1200	    10.724
  15.900	       109	    1200	    10.440
  15.920	        88	    1200	     9.381
  15.940	       101	    1200	    10.050
  15.960	       110	    1200	    10.488
  15.980	        88	    1200	     9.381
  16.000	       106	    1200	    10.296
  16.020	       105	    1200	    10.247
  16.040	       116	    1200	    10.770
  16.060	        94	    1200	     9.695
  16.080	       104	    1200	    10.198
  16.100	       105	    1200	    10.247
  16.120	        98	    1200	     9.899
  16.140	       121	    1200	    11.000
  16.160	        91	    1200	     9.539
  16.180	       106	    1200	    10.296
  16.200	       114	    1200	    10.677
  16.220	        97	    1200	     9.849
  16.240	       115	    1200	    10.724
  16.260	        94	    1200	     9.695
  16.280	        81	    1200	     9.000
  16.300	       115	    1200	    10.724
  16.320	       114	    1200	    10.677
  16.340	       107	    1200	    10.344
  16.360	       119	    1200	    10.909
  16.380	       121	    1200	    11.000
  16.400	       109	    1200	    10.440
  16.420	       104	    1200	    10.198
  16.440	       101	    1200	    10.050
  16.460	        96	    1200	     9.798
  16.480	       109	    1200	    10.440
  16.500	       111	    1200	    10.536
  16.520	       118	    1200	    10.863
  16.540	       107	    1200	    10.344
  16.560	        84	    1200	     9.165
  16.580	       112	    1200	    10.583
  16.600	       117	    1200	    10.817
  16.620	       106	    1200	    10.296
  16.640	       125	    1200	    11.180
  16.660	        97	    1200	     9.849
  16.680	        93	    1200	     9.644
  16.700	        96	    1200	     9.798
  16.720	        98	    1200	     9.899
  16.740	       109	    1200	    10.440
  16.760	        95	    1200	     9.747
  16.780	        98	    1200	     9.899
  16.800	        95	    1200	     9.747
  16.820	       106	    1200	    10.296
  16.840	       103	    1200	    10.149
  16.860	       107	    1200	    10.344
  16.880	       107	    1200	    10.344
  16.900	        95	    1200	     9.747
  16.920	        99	    1200	     9.950
  16.940	       110	    1200	    10.488
  16.960	        98	    1200	     9.899
  16.980	       113	    1200	    10.630
  17.000	       111	    1200	    10.536
  17.020	        98	    1200	     9.899
  17.040	        99	    1200	     9.950
  17.060	       112	    1200	    10.583
  17.080	       113	    1200	    10.630
  17.100	       106	    1200	    10.296
  17.120	       113	    1200	    10.630
  17.140	       107	    1200	    10.344
  17.160	       120	    1200	    10.954
  17.180	       111	    1200	    10.536
  17.200	       109	    1200	    10.440
  17.220	       101	    1200	    10.050
  17.240	       114	    1200	    10.677
  17.260	        90	    1200	     9.487
  17.280	       116	    1200	    10.770
  17.300	        92	    1200	     9.592
  17.320	        88	    1200	     9.381
  17.340	       101	    1200	    10.050
  17.360	       141	    1200	    11.874
  17.380	       110	    1200	    10.488
  17.400	        92	    1200	     9.592
  17.420	        94	    1200	     9.695
  17.440	        89	    1200	     9.434
  17.460	       100	    1200	    10.000
  17.480	        88	    1200	     9.381
  17.500	       115	    1200	    10.724
  17.520	       113	    1200	    10.630
  17.540	       105	    1200	    10.247
  17.560	       113	    1200	    10.630
  17.580	        99	    1200	     9.950
  17.600	        90	    1200	     9.487
  17.620	        85	    1200	     9.220
  17.640	        93	    1200	     9.644
  17.660	       116	    1200	    10.770
  17.680	       102	    1200	    10.100
  17.700	       102	    1200	    10.100
  17.720	        96	    1200	     9.798
  17.740	       118	    1200	    10.863
  17.760	        89	    1200	     9.434
  17.780	       105	    1200	    10.247
  17.800	       116	    1200	    10.770
  17.820	        94	    1200	     9.695
  17.840	       113	    1200	    10.630
  17.860	       114	    1200	    10.677
  17.880	       101	    1200	    10.050
  17.900	       103	    1200	    10.149
  17.920	        91	    1200	     9.539
  17.940	        86	    1200	     9.274
  17.960	       115	    1200	    10.724
  17.980	        93	    1200	     9.644
  18.000	        92	    1200	     9.592
  18.020	       114	    1200	    10.677
  18.040	       109	    1200	    10.440
  18.060	        96	    1200	     9.798
  18.080	       106	    1200	    10.296
  18.100	        96	    1200	     9.798
  18.120	        94	    1200	     9.695
  18.140	        92	    1200	     9.592
  18.160	       114	    1200	    10.677
  18.180	        84	    1200	     9.165
  18.200	       111	    1200	    10.536
  18.220	       102	    1200	    10.100
  18.240	        97	    1200	     9.849
  18.260	        81	    1200	     9.000
  18.280	       115	    1200	    10.724
  18.300	        95	    1200	     9.747
  18.320	       110	    1200	    10.488
  18.340	        97	    1200	     9.849
  18.360	        84	    1200	     9.165
  18.380	       118	    1200	    10.863
  18.400	       104	    1200	    10.198
  18.420	       109	    1200	    10.440
  18.440	        99	    1200	     9.950
  18.460	       108	    1200	    10.392
  18.480	        85	    1200	     9.220
  18.500	        90	    1200	     9.487
  18.520	        88	    1200	     9.381
  18.540	        93	    1200	     9.644
  18.560	        86	    1200	     9.274
  18.580	       119	    1200	    10.909
  18.600	       128	    1200	    11.314
  18.620	       104	    1200	    10.198
  18.640	       103	    1200	    10.149
  18.660	       104	    1200	    10.198
  18.680	       100	    1200	    10.000
  18.700	        92	    1200	     9.592
  18.720	       106	    1200	    10.296
  18.740	       118	    1200	    10.863
  18.760	       121	    1200	    11.000
  18.780	        88	    1200	     9.381
  18.800	        91	    1200	     9.539
  18.820	        85	    1200	     9.220
  18.840	        97	    1200	     9.849
  18.860	       109	    1200	    10.440
  18.880	        88	    1200	     9.381
  18.900	        96	    1200	     9.798
  18.920	       110	    1200	    10.488
  18.940	        98	    1200	     9.899
  18.960	        79	    1200	     8.888
  18.980	        87	    1200	     9.327
  19.000	        90	    1200	     9.487
  19.020	       113	    1200	    10.630
  19.040	        92	    1200	     9.592
  19.060	       103	    1200	    10.149
  19.080	       114	    1200	    10.677
  19.100	        93	    1200	     9.644
  19.120	       107	    1200	    10.344
  19.140	       107	    1200	    10.344
  19.160	        77	    1200	     8.775
  19.180	       112	    1200	    10.583
  19.200	       110	    1200	    10.488
  19.220	       101	    1200	    10.050
  19.240	       107	    1200	    10.344
  19.260	       110	    1200	    10.488
  19.280	       100	    1200	    10.000
  19.300	        85	    1200	     9.220
  19.320	       116	    1200	    10.770
  19.340	        93	    1200	     9.644
  19.360	       110	    1200	    10.488
  19.380	       100	    1200	    10.000
  19.400	       112	    1200	    10.583
  19.420	       100	    1200	    10.000
  19.440	        90	    1200	     9.487
  19.460	        84	    1200	     9.165
  19.480	       107	    1200	    10.344
  19.500	       108	    1200	    10.392
  19.520	        97	    1200	     9.849
  19.540	        93	    1200	     9.644
  19.560	        87	    1200	     9.327
  19.580	        96	    1200	     9.798
  19.600	        95	    1200	     9.747
  19.620	       106	    1200	    10.296
  19.640	       100	    1200	    10.000
  19.660	       108	    1200	    10.392
  19.680	       106	    1200	    10.296
  19.700	       101	    1200	    10.050
  19.720	       107	    1200	    10.344
  19.740	       107	    1200	    10.344
  19.760	       111	    1200	    10.536
  19.780	       110	    1200	    10.488
  19.800	        91	    1200	     9.539
  19.820	       104	    1200	    10.198
  19.840	        78	    1200	     8.832
  19.860	       105	    1200	    10.247
  19.880	        99	    1200	     9.950
  19.900	        99	    1200	     9.950
  19.920	       100	    1200	    10.000
  19.940	        91	    1200	     9.539
  19.960	       104	    1200	    10.198
  19.980	        96	    1200	     9.798
  20.000	        95	    1200	     9.747
  20.020	       101	    1200	    10.050
  20.040	        82	    1200	     9.055
  20.060	       111	    1200	    10.536
  20.080	        99	    1200	     9.950
  20.100	       106	    1200	    10.296
  20.120	        73	    1200	     8.544
  20.140	        93	    1200	     9.644
  20.160	       101	    1200	    10.050
  20.180	        88	    1200	     9.381
  20.200	        94	    1200	     9.695
  20.220	        95	    1200	     9.747
  20.240	        94	    1200	     9.695
  20.260	        89	    1200	     9.434
  20.280	       104	    1200	    10.198
  20.300	        91	    1200	     9.539
  20.320	        94	    1200	     9.695
  20.340	       101	    1200	    10.050
  20.360	        92	    1200	     9.592
  20.380	       104	    1200	    10.198
  20.400	       104	    1200	    10.198
  20.420	        92	    1200	     9.592
  20.440	       105	    1200	    10.247
  20.460	       107	    1200	    10.344
  20.480	        84	    1200	     9.165
  20.500	       103	    1200	    10.149
  20.520	        86	    1200	     9.274
  20.540	        99	    1200	     9.950
  20.560	        93	    1200	     9.644
  20.580	        77	    1200	     8.775
  20.600	        98	    1200	     9.899
  20.620	        93	    1200	     9.644
  20.640	        89	    1200	     9.434
  20.660	        85	    1200	     9.220
  20.680	        85	    1200	     9.220
  20.700	        86	    1200	     9.274
  20.720	       103	    1200	    10.149
  20.740	        80	    1200	     8.944
  20.760	        88	    1200	     9.381
  20.780	        87	    1200	     9.327
  20.800	       111	    1200	    10.536
  20.820	       103	    1200	    10.149
  20.840	        97	    1200	     9.849
  20.860	       104	    1200	    10.198
  20.880	        90	    1200	     9.487
  20.900	       105	    1200	    10.247
  20.920	       102	    1200	    10.100
  20.940	        94	    1200	     9.695
  20.960	       101	    1200	    10.050
  20.980	       102	    1200	    10.100
  21.000	        92	    1200	     9.592
  21.020	       112	    1200	    10.583
  21.040	        93	    1200	     9.644
  21.060	        92	    1200	     9.592
  21.080	        99	    1200	     9.950
  21.100	        93	    1200	     9.644
  21.120	        92	    1200	     9.592
  21.140	        97	    1200	     9.849
  21.160	        80	    1200	     8.944
  21.180	        90	    1200	     9.487
  21.200	        93	    1200	     9.644
  21.220	        87	    1200	     9.327
  21.240	       110	    1200	    10.488
  21.260	       104	    1200	    10.198
  21.280	        85	    1200	     9.220
  21.300	        98	    1200	     9.899
  21.320	        85	    1200	     9.220
  21.340	        89	    1200	     9.434
  21.360	        96	    1200	     9.798
  21.380	       104	    1200	    10.198
  21.400	       102	    1200	    10.100
  21.420	       100	    1200	    10.000
  21.440	        90	    1200	     9.487
  21.460	        95	    1200	     9.747
  21.480	        94	    1200	     9.695
  21.500	        79	    1200	     8.888
  21.520	        91	    1200	     9.539
  21.540	       100	    1200	    10.000
  21.560	        85	    1200	     9.220
  21.580	        98	    1200	     9.899
  21.600	        87	    1200	     9.327
  21.620	        90	    1200	     9.487
  21.640	        96	    1200	     9.798
  21.660	        87	    1200	     9.327
  21.680	        91	    1200	     9.539
  21.700	        93	    1200	     9.644
  21.720	        90	    1200	     9.487
  21.740	        91	    1200	     9.539
  21.760	        97	    1200	     9.849
  21.780	        92	    1200	     9.592
  21.800	        80	    1200	     8.944
  21.820	        96	    1200	     9.798
  21.840	        96	    1200	     9.798
  21.860	        90	    1200	     9.487
  21.880	        88	    1200	     9.381
  21.900	        83	    1200	     9.110
  21.920	        91	    1200	     9.539
  21.940	        86	    1200	     9.274
  21.960	        85	    1200	     9.220
  21.980	        90	    1200	     9.487
  22.000	        83	    1200	     9.110
  22.020	       105	    1200	    10.247
  22.040	        93	    1200	     9.644
  22.060	        83	    1200	     9.110
  22.080	       103	    1200	    10.149
  22.100	        99	    1200	     9.950
  22.120	        83	    1200	     9.110
  22.140	        98	    1200	     9.899
  22.160	        74	    1200	     8.602
  22.180	        78	    1200	     8.832
  22.200	        84	    1200	     9.165
  22.220	        92	    1200	     9.592
  22.240	       101	    1200	    10.050
  22.260	       114	    1200	    10.677
  22.280	        91	    1200	     9.539
  22.300	       106	    1200	    10.296
  22.320	        88	    1200	     9.381
  22.340	        99	    1200	     9.950
  22.360	       121	    1200	    11.000
  22.380	       100	    1200	    10.000
  22.400	        98	    1200	     9.899
  22.420	       117	    1200	    10.817
  22.440	       120	    1200	    10.954
  22.460	       104	    1200	    10.198
  22.480	       124	    1200	    11.136
  22.500	       122	    1200	    11.045
  22.520	       109	    1200	    10.440
  22.540	       105	    1200	    10.247
  22.560	       117	    1200	    10.817
  22.580	        97	    1200	     9.849
  22.600	       107	    1200	    10.344
  22.620	       104	    1200	    10.198
  22.640	       107	    1200	    10.344
  22.660	        90	    1200	     9.487
  22.680	        78	    1200	     8.832
  22.700	       107	    1200	    10.344
  22.720	        98	    1200	     9.899
  22.740	        84	    1200	     9.165
  22.760	       100	    1200	    10.000
  22.780	        96	    1200	     9.798
  22.800	       109	    1200	    10.440
  22.820	       103	    1200	    10.149
  22.840	       110	    1200	    10.488
  22.860	        86	    1200	     9.274
  22.880	        97	    1200	     9.849
  22.900	       103	    1200	    10.149
  22.920	        92	    1200	     9.592
  22.940	        89	    1200	     9.434
  22.960	        90	    1200	     9.487
  22.980	       110	    1200	    10.488
  23.000	       102	    1200	    10.100
  23.020	       100	    1200	    10.000
  23.040	        94	    1200	     9.695
  23.060	        87	    1200	     9.327
  23.080	        79	    1200	     8.888
  23.100	        85	    1200	     9.220
  23.120	        74	    1200	     8.602
  23.140	        75	    1200	     8.660
  23.160	        85	    1200	     9.220
  23.180	        85	    1200	     9.220
  23.200	        84	    1200	     9.165
  23.220	        74	    1200	     8.602
  23.240	       102	    1200	    10.100
  23.260	        86	    1200	     9.274
  23.280	       100	    1200	    10.000
  23.300	        95	    1200	     9.747
  23.320	        80	    1200	     8.944
  23.340	        92	    1200	     9.592
  23.360	        84	    1200	     9.165
  23.380	        73	    1200	     8.544
  23.400	        85	    1200	     9.220
  23.420	        87	    1200	     9.327
  23.440	        68	    1200	     8.246
  23.460	        87	    1200	     9.327
  23.480	        92	    1200	     9.592
  23.500	        94	    1200	     9.695
  23.520	        69	    1200	     8.307
  23.540	        80	    1200	     8.944
  23.560	        76	    1200	     8.718
  23.580	        91	    1200	     9.539
  23.600	        83	    1200	     9.110
  23.620	        90	    1200	     9.487
  23.640	        98	    1200	     9.899
  23.660	        78	    1200	     8.832
  23.680	        84	    1200	     9.165
  23.700	        79	    1200	     8.888
  23.720	        87	    1200	     9.327
  23.740	        83	    1200	     9.110
  23.760	        79	    1200	     8.888
  23.780	        81	    1200	     9.000
  23.800	        80	    1200	     8.944
  23.820	        77	    1200	     8.775
  23.840	        82	    1200	     9.055
  23.860	       107	    1200	    10.344
  23.880	        68	    1200	     8.246
  23.900	        72	    1200	     8.485
  23.920	        76	    1200	     8.718
  23.940	        92	    1200	     9.592
  23.960	        65	    1200	     8.062
  23.980	        83	    1200	     9.110
  24.000	        76	    1200	     8.718
  24.020	        82	    1200	     9.055
  24.040	        67	    1200	     8.185
  24.060	        85	    1200	     9.220
