         ID: 

    Comment: 

Scan Type: Normal
Start Angle: 15 deg.
Stop Angle: 90 deg.
Num Points: 3751
Step Size: 0.02 deg.
Datafile Res: 1600 
Scan Rate: 1.000000
Scan Mode: Continuous
Wavelength: 1.540562

Diffractometer Optics:
		Detector:
			 Type: Fixed Slits
			 X2 Configuration: No
		Tube: 
			 Type: Fixed Slits
			 X2 Configuration: No


Axis[0]
	 Selected   : no 
	 Iterative  : no 
	 Start Angle: 0.000000 
	 Stop Angle : 0.000000 
	 Step Size  : 0.000000 
	 Oscillating: no 

Axis[1]
	 Selected   : no 
	 Iterative  : no 
	 Start Angle: 0.000000 
	 Stop Angle : 0.000000 
	 Step Size  : 0.000000 
	 Oscillating: no 

Axis[2]
	 Selected   : no 
	 Iterative  : no 
	 Start Angle: 0.000000 
	 Stop Angle : 0.000000 
	 Step Size  : 0.000000 
	 Oscillating: no 

Axis[3]
	 Selected   : no 
	 Iterative  : no 
	 Start Angle: 0.000000 
	 Stop Angle : 0.000000 
	 Step Size  : 0.000000 
	 Oscillating: no 

Axis[4]
	 Selected   : no 
	 Iterative  : no 
	 Start Angle: 0.000000 
	 Stop Angle : 0.000000 
	 Step Size  : 0.000000 
	 Oscillating: no 

Axis[5]
	 Selected   : no 
	 Iterative  : no 
	 Start Angle: 0.000000 
	 Stop Angle : 0.000000 
	 Step Size  : 0.000000 
	 Oscillating: no 

Axis[6]
	 Selected   : no 
	 Iterative  : no 
	 Start Angle: 0.000000 
	 Stop Angle : 0.000000 
	 Step Size  : 0.000000 
	 Oscillating: no 

Axis[7]
	 Selected   : no 
	 Iterative  : no 
	 Start Angle: 0.000000 
	 Stop Angle : 0.000000 
	 Step Size  : 0.000000 
	 Oscillating: no 

Axis[8]
	 Selected   : no 
	 Iterative  : no 
	 Start Angle: 0.000000 
	 Stop Angle : 0.000000 
	 Step Size  : 0.000000 
	 Oscillating: no 

Axis[9]
	 Selected   : no 
	 Iterative  : no 
	 Start Angle: 0.000000 
	 Stop Angle : 0.000000 
	 Step Size  : 0.000000 
	 Oscillating: no 




	   Deg.    Counts 	   Time 	    ESD   

Range 0
  15.000	       104	    1200	    10.198
  15.020	       105	    1200	    10.247
  15.040	       117	    1200	    10.817
  15.060	       110	    1200	    10.488
  15.080	        96	    1200	     9.798
  15.100	       108	    1200	    10.392
  15.120	       103	    1200	    10.149
  15.140	       116	    1200	    10.770
  15.160	        98	    1200	     9.899
  15.180	        99	    1200	     9.950
  15.200	       104	    1200	    10.198
  15.220	        91	    1200	     9.539
  15.240	       103	    1200	    10.149
  15.260	       107	    1200	    10.344
  15.280	       107	    1200	    10.344
  15.300	       125	    1200	    11.180
  15.320	       115	    1200	    10.724
  15.340	        94	    1200	     9.695
  15.360	        90	    1200	     9.487
  15.380	        98	    1200	     9.899
  15.400	       101	    1200	    10.050
  15.420	       122	    1200	    11.045
  15.440	       103	    1200	    10.149
  15.460	        91	    1200	     9.539
  15.480	       114	    1200	    10.677
  15.500	       100	    1200	    10.000
  15.520	       121	    1200	    11.000
  15.540	       115	    1200	    10.724
  15.560	       102	    1200	    10.100
  15.580	        91	    1200	     9.539
  15.600	       112	    1200	    10.583
  15.620	       102	    1200	    10.100
  15.640	        95	    1200	     9.747
  15.660	        93	    1200	     9.644
  15.680	        83	    1200	     9.110
  15.700	        88	    1200	     9.381
  15.720	        99	    1200	     9.950
  15.740	        94	    1200	     9.695
  15.760	        99	    1200	     9.950
  15.780	       101	    1200	    10.050
  15.800	       104	    1200	    10.198
  15.820	        88	    1200	     9.381
  15.840	       100	    1200	    10.000
  15.860	        88	    1200	     9.381
  15.880	       103	    1200	    10.149
  15.900	       110	    1200	    10.488
  15.920	        89	    1200	     9.434
  15.940	        74	    1200	     8.602
  15.960	        94	    1200	     9.695
  15.980	        97	    1200	     9.849
  16.000	        93	    1200	     9.644
  16.020	        95	    1200	     9.747
  16.040	       101	    1200	    10.050
  16.060	        98	    1200	     9.899
  16.080	        91	    1200	     9.539
  16.100	       111	    1200	    10.536
  16.120	       111	    1200	    10.536
  16.140	       116	    1200	    10.770
  16.160	       105	    1200	    10.247
  16.180	       107	    1200	    10.344
  16.200	        94	    1200	     9.695
  16.220	       106	    1200	    10.296
  16.240	       107	    1200	    10.344
  16.260	        84	    1200	     9.165
  16.280	        91	    1200	     9.539
  16.300	        95	    1200	     9.747
  16.320	       108	    1200	    10.392
  16.340	        97	    1200	     9.849
  16.360	       107	    1200	    10.344
  16.380	       106	    1200	    10.296
  16.400	        94	    1200	     9.695
  16.420	       102	    1200	    10.100
  16.440	        95	    1200	     9.747
  16.460	       112	    1200	    10.583
  16.480	       111	    1200	    10.536
  16.500	       103	    1200	    10.149
  16.520	        99	    1200	     9.950
  16.540	       105	    1200	    10.247
  16.560	       100	    1200	    10.000
  16.580	        85	    1200	     9.220
  16.600	       105	    1200	    10.247
  16.620	        98	    1200	     9.899
  16.640	        93	    1200	     9.644
  16.660	       115	    1200	    10.724
  16.680	       120	    1200	    10.954
  16.700	       114	    1200	    10.677
  16.720	        93	    1200	     9.644
  16.740	       106	    1200	    10.296
  16.760	       119	    1200	    10.909
  16.780	       100	    1200	    10.000
  16.800	       119	    1200	    10.909
  16.820	        94	    1200	     9.695
  16.840	        90	    1200	     9.487
  16.860	        99	    1200	     9.950
  16.880	        95	    1200	     9.747
  16.900	       105	    1200	    10.247
  16.920	        99	    1200	     9.950
  16.940	        91	    1200	     9.539
  16.960	       105	    1200	    10.247
  16.980	        98	    1200	     9.899
  17.000	       104	    1200	    10.198
  17.020	        97	    1200	     9.849
  17.040	        93	    1200	     9.644
  17.060	       112	    1200	    10.583
  17.080	        81	    1200	     9.000
  17.100	       106	    1200	    10.296
  17.120	        99	    1200	     9.950
  17.140	        94	    1200	     9.695
  17.160	       101	    1200	    10.050
  17.180	       102	    1200	    10.100
  17.200	       106	    1200	    10.296
  17.220	        95	    1200	     9.747
  17.240	        92	    1200	     9.592
  17.260	        93	    1200	     9.644
  17.280	        90	    1200	     9.487
  17.300	        95	    1200	     9.747
  17.320	       106	    1200	    10.296
  17.340	        96	    1200	     9.798
  17.360	        78	    1200	     8.832
  17.380	       103	    1200	    10.149
  17.400	        91	    1200	     9.539
  17.420	        92	    1200	     9.592
  17.440	       104	    1200	    10.198
  17.460	       117	    1200	    10.817
  17.480	       115	    1200	    10.724
  17.500	       101	    1200	    10.050
  17.520	        79	    1200	     8.888
  17.540	       104	    1200	    10.198
  17.560	        96	    1200	     9.798
  17.580	        84	    1200	     9.165
  17.600	       109	    1200	    10.440
  17.620	        80	    1200	     8.944
  17.640	       100	    1200	    10.000
  17.660	       100	    1200	    10.000
  17.680	        96	    1200	     9.798
  17.700	       109	    1200	    10.440
  17.720	       106	    1200	    10.296
  17.740	        95	    1200	     9.747
  17.760	        90	    1200	     9.487
  17.780	       100	    1200	    10.000
  17.800	        99	    1200	     9.950
  17.820	       103	    1200	    10.149
  17.840	        97	    1200	     9.849
  17.860	        86	    1200	     9.274
  17.880	        98	    1200	     9.899
  17.900	        97	    1200	     9.849
  17.920	       103	    1200	    10.149
  17.940	        92	    1200	     9.592
  17.960	        95	    1200	     9.747
  17.980	       102	    1200	    10.100
  18.000	        91	    1200	     9.539
  18.020	       101	    1200	    10.050
  18.040	       101	    1200	    10.050
  18.060	       118	    1200	    10.863
  18.080	        88	    1200	     9.381
  18.100	       102	    1200	    10.100
  18.120	       117	    1200	    10.817
  18.140	        93	    1200	     9.644
  18.160	       100	    1200	    10.000
  18.180	       116	    1200	    10.770
  18.200	        82	    1200	     9.055
  18.220	       107	    1200	    10.344
  18.240	       105	    1200	    10.247
  18.260	       114	    1200	    10.677
  18.280	       112	    1200	    10.583
  18.300	       107	    1200	    10.344
  18.320	        84	    1200	     9.165
  18.340	       104	    1200	    10.198
  18.360	       101	    1200	    10.050
  18.380	        86	    1200	     9.274
  18.400	        83	    1200	     9.110
  18.420	       125	    1200	    11.180
  18.440	       108	    1200	    10.392
  18.460	        97	    1200	     9.849
  18.480	       112	    1200	    10.583
  18.500	        98	    1200	     9.899
  18.520	       107	    1200	    10.344
  18.540	        93	    1200	     9.644
  18.560	       112	    1200	    10.583
  18.580	        87	    1200	     9.327
  18.600	        81	    1200	     9.000
  18.620	       105	    1200	    10.247
  18.640	       117	    1200	    10.817
  18.660	       104	    1200	    10.198
  18.680	       106	    1200	    10.296
  18.700	       112	    1200	    10.583
  18.720	        95	    1200	     9.747
  18.740	       107	    1200	    10.344
  18.760	       100	    1200	    10.000
  18.780	       107	    1200	    10.344
  18.800	        99	    1200	     9.950
  18.820	       108	    1200	    10.392
  18.840	        95	    1200	     9.747
  18.860	        90	    1200	     9.487
  18.880	       115	    1200	    10.724
  18.900	       103	    1200	    10.149
  18.920	       101	    1200	    10.050
  18.940	        84	    1200	     9.165
  18.960	       110	    1200	    10.488
  18.980	        98	    1200	     9.899
  19.000	       108	    1200	    10.392
  19.020	        92	    1200	     9.592
  19.040	        79	    1200	     8.888
  19.060	       107	    1200	    10.344
  19.080	        98	    1200	     9.899
  19.100	        99	    1200	     9.950
  19.120	       104	    1200	    10.198
  19.140	       101	    1200	    10.050
  19.160	       100	    1200	    10.000
  19.180	       114	    1200	    10.677
  19.200	       101	    1200	    10.050
  19.220	       127	    1200	    11.269
  19.240	        90	    1200	     9.487
  19.260	        90	    1200	     9.487
  19.280	       107	    1200	    10.344
  19.300	        97	    1200	     9.849
  19.320	        94	    1200	     9.695
  19.340	       106	    1200	    10.296
  19.360	       107	    1200	    10.344
  19.380	        85	    1200	     9.220
  19.400	        92	    1200	     9.592
  19.420	       103	    1200	    10.149
  19.440	       114	    1200	    10.677
  19.460	       120	    1200	    10.954
  19.480	        99	    1200	     9.950
  19.500	       107	    1200	    10.344
  19.520	        88	    1200	     9.381
  19.540	       111	    1200	    10.536
  19.560	       102	    1200	    10.100
  19.580	        99	    1200	     9.950
  19.600	        96	    1200	     9.798
  19.620	       103	    1200	    10.149
  19.640	        81	    1200	     9.000
  19.660	       110	    1200	    10.488
  19.680	       114	    1200	    10.677
  19.700	        95	    1200	     9.747
  19.720	       105	    1200	    10.247
  19.740	       123	    1200	    11.091
  19.760	       112	    1200	    10.583
  19.780	        97	    1200	     9.849
  19.800	       117	    1200	    10.817
  19.820	       108	    1200	    10.392
  19.840	        94	    1200	     9.695
  19.860	       100	    1200	    10.000
  19.880	       103	    1200	    10.149
  19.900	        81	    1200	     9.000
  19.920	       118	    1200	    10.863
  19.940	       114	    1200	    10.677
  19.960	        93	    1200	     9.644
  19.980	        99	    1200	     9.950
  20.000	        90	    1200	     9.487
  20.020	       102	    1200	    10.100
  20.040	        94	    1200	     9.695
  20.060	        97	    1200	     9.849
  20.080	        99	    1200	     9.950
  20.100	        95	    1200	     9.747
  20.120	        90	    1200	     9.487
  20.140	       102	    1200	    10.100
  20.160	       103	    1200	    10.149
  20.180	       103	    1200	    10.149
  20.200	       104	    1200	    10.198
  20.220	       126	    1200	    11.225
  20.240	       113	    1200	    10.630
  20.260	        98	    1200	     9.899
  20.280	        98	    1200	     9.899
  20.300	       104	    1200	    10.198
  20.320	        87	    1200	     9.327
  20.340	        91	    1200	     9.539
  20.360	        89	    1200	     9.434
  20.380	       105	    1200	    10.247
  20.400	       114	    1200	    10.677
  20.420	       102	    1200	    10.100
  20.440	       107	    1200	    10.344
  20.460	        98	    1200	     9.899
  20.480	       109	    1200	    10.440
  20.500	       109	    1200	    10.440
  20.520	       106	    1200	    10.296
  20.540	       121	    1200	    11.000
  20.560	        91	    1200	     9.539
  20.580	       109	    1200	    10.440
  20.600	       104	    1200	    10.198
  20.620	       116	    1200	    10.770
  20.640	       127	    1200	    11.269
  20.660	       124	    1200	    11.136
  20.680	       123	    1200	    11.091
  20.700	        95	    1200	     9.747
  20.720	       106	    1200	    10.296
  20.740	       109	    1200	    10.440
  20.760	       103	    1200	    10.149
  20.780	       101	    1200	    10.050
  20.800	       117	    1200	    10.817
  20.820	        87	    1200	     9.327
  20.840	       127	    1200	    11.269
  20.860	       110	    1200	    10.488
  20.880	       130	    1200	    11.402
  20.900	       107	    1200	    10.344
  20.920	       102	    1200	    10.100
  20.940	       101	    1200	    10.050
  20.960	       108	    1200	    10.392
  20.980	        99	    1200	     9.950
  21.000	        93	    1200	     9.644
  21.020	        93	    1200	     9.644
  21.040	       105	    1200	    10.247
  21.060	       101	    1200	    10.050
  21.080	       112	    1200	    10.583
  21.100	       113	    1200	    10.630
  21.120	       109	    1200	    10.440
  21.140	       103	    1200	    10.149
  21.160	       126	    1200	    11.225
  21.180	       107	    1200	    10.344
  21.200	       101	    1200	    10.050
  21.220	       115	    1200	    10.724
  21.240	       110	    1200	    10.488
  21.260	       100	    1200	    10.000
  21.280	       117	    1200	    10.817
  21.300	       111	    1200	    10.536
  21.320	        89	    1200	     9.434
  21.340	        94	    1200	     9.695
  21.360	       101	    1200	    10.050
  21.380	       112	    1200	    10.583
  21.400	       108	    1200	    10.392
  21.420	       111	    1200	    10.536
  21.440	       109	    1200	    10.440
  21.460	        89	    1200	     9.434
  21.480	       107	    1200	    10.344
  21.500	       122	    1200	    11.045
  21.520	        96	    1200	     9.798
  21.540	       106	    1200	    10.296
  21.560	       105	    1200	    10.247
  21.580	       104	    1200	    10.198
  21.600	       107	    1200	    10.344
  21.620	       126	    1200	    11.225
  21.640	       110	    1200	    10.488
  21.660	       112	    1200	    10.583
  21.680	       101	    1200	    10.050
  21.700	        97	    1200	     9.849
  21.720	       124	    1200	    11.136
  21.740	       129	    1200	    11.358
  21.760	       108	    1200	    10.392
  21.780	       115	    1200	    10.724
  21.800	       109	    1200	    10.440
  21.820	       113	    1200	    10.630
  21.840	        94	    1200	     9.695
  21.860	       103	    1200	    10.149
  21.880	       127	    1200	    11.269
  21.900	       106	    1200	    10.296
  21.920	       101	    1200	    10.050
  21.940	        95	    1200	     9.747
  21.960	       119	    1200	    10.909
  21.980	       113	    1200	    10.630
  22.000	       104	    1200	    10.198
  22.020	       120	    1200	    10.954
  22.040	       118	    1200	    10.863
  22.060	       113	    1200	    10.630
  22.080	       102	    1200	    10.100
  22.100	       107	    1200	    10.344
  22.120	       122	    1200	    11.045
  22.140	       109	    1200	    10.440
  22.160	       131	    1200	    11.446
  22.180	        94	    1200	     9.695
  22.200	       108	    1200	    10.392
  22.220	       113	    1200	    10.630
  22.240	       110	    1200	    10.488
  22.260	        99	    1200	     9.950
  22.280	       105	    1200	    10.247
  22.300	        99	    1200	     9.950
  22.320	       129	    1200	    11.358
  22.340	       112	    1200	    10.583
  22.360	       108	    1200	    10.392
  22.380	       109	    1200	    10.440
  22.400	       117	    1200	    10.817
  22.420	       112	    1200	    10.583
  22.440	       131	    1200	    11.446
  22.460	       112	    1200	    10.583
  22.480	       122	    1200	    11.045
  22.500	       122	    1200	    11.045
  22.520	       124	    1200	    11.136
  22.540	       114	    1200	    10.677
  22.560	       101	    1200	    10.050
  22.580	       138	    1200	    11.747
  22.600	        92	    1200	     9.592
  22.620	       127	    1200	    11.269
  22.640	       137	    1200	    11.705
  22.660	       138	    1200	    11.747
  22.680	       130	    1200	    11.402
  22.700	       125	    1200	    11.180
  22.720	       117	    1200	    10.817
  22.740	       110	    1200	    10.488
  22.760	       123	    1200	    11.091
  22.780	       129	    1200	    11.358
  22.800	       133	    1200	    11.533
  22.820	       153	    1200	    12.369
  22.840	       129	    1200	    11.358
  22.860	       123	    1200	    11.091
  22.880	       145	    1200	    12.042
  22.900	       139	    1200	    11.790
  22.920	       136	    1200	    11.662
  22.940	       127	    1200	    11.269
  22.960	       141	    1200	    11.874
  22.980	       120	    1200	    10.954
  23.000	       119	    1200	    10.909
  23.020	       133	    1200	    11.533
  23.040	       133	    1200	    11.533
  23.060	       151	    1200	    12.288
  23.080	       128	    1200	    11.314
  23.100	       122	    1200	    11.045
  23.120	       119	    1200	    10.909
  23.140	       128	    1200	    11.314
  23.160	       106	    1200	    10.296
  23.180	       131	    1200	    11.446
  23.200	       110	    1200	    10.488
  23.220	       104	    1200	    10.198
  23.240	       114	    1200	    10.677
  23.260	       123	    1200	    11.091
  23.280	       121	    1200	    11.000
  23.300	       101	    1200	    10.050
  23.320	       115	    1200	    10.724
  23.340	       118	    1200	    10.863
  23.360	       104	    1200	    10.198
  23.380	       134	    1200	    11.576
  23.400	       127	    1200	    11.269
  23.420	       111	    1200	    10.536
  23.440	       108	    1200	    10.392
  23.460	       120	    1200	    10.954
  23.480	        96	    1200	     9.798
  23.500	        97	    1200	     9.849
  23.520	       109	    1200	    10.440
  23.540	       109	    1200	    10.440
  23.560	       109	    1200	    10.440
  23.580	       118	    1200	    10.863
  23.600	       108	    1200	    10.392
  23.620	       115	    1200	    10.724
  23.640	       116	    1200	    10.770
  23.660	       111	    1200	    10.536
  23.680	       104	    1200	    10.198
  23.700	       104	    1200	    10.198
  23.720	        84	    1200	     9.165
  23.740	       104	    1200	    10.198
  23.760	       105	    1200	    10.247
  23.780	       121	    1200	    11.000
  23.800	       100	    1200	    10.000
  23.820	       106	    1200	    10.296
  23.840	       113	    1200	    10.630
  23.860	       112	    1200	    10.583
  23.880	       103	    1200	    10.149
  23.900	       103	    1200	    10.149
  23.920	       106	    1200	    10.296
  23.940	       109	    1200	    10.440
  23.960	       136	    1200	    11.662
  23.980	       124	    1200	    11.136
  24.000	        93	    1200	     9.644
  24.020	       117	    1200	    10.817
  24.040	       109	    1200	    10.440
  24.060	       112	    1200	    10.583
